F3,FC5,AF3,F7,T7,P7,O1,O2,P8,T8,F8,AF4,FC6,F4
4449.24,4693.02,4138.65,4201.89,4404.87,4699.14,4639.47,3805.11,4441.08,4523.7,3935.67,3978.51,4401.3,3665.88
4441.08,4690.47,4131.51,4198.32,4408.4400000000005,4701.6900000000005,4644.06,3806.64,4441.08,4521.66,3933.12,3972.9,4398.75,3656.19
4443.12,4690.47,4130.49,4197.81,4406.4,4698.63,4644.57,3813.27,4439.04,4521.15,3930.57,3972.9,4396.71,3658.23
4456.38,4693.53,4140.6900000000005,4200.36,4399.77,4697.61,4638.96,3811.7400000000002,4441.59,4521.66,3936.69,3984.12,4403.85,3670.98
4437.0,4689.96,4127.43,4197.3,4405.89,4705.77,4651.71,3808.17,4441.08,4520.13,3928.53,3973.92,4398.75,3652.62
4445.67,4692.0,4134.57,4198.83,4402.83,4700.16,4647.63,3808.6800000000003,4438.53,4522.17,3936.69,3982.08,4400.28,3660.78
4445.67,4689.45,4131.51,4197.3,4401.3,4701.18,4647.63,3812.25,4437.51,4523.1900000000005,3929.55,3977.4900000000002,4399.26,3661.29
4437.51,4690.47,4128.96,4198.32,4404.87,4705.26,4651.2,3810.7200000000003,4438.53,4522.17,3924.4500000000003,3975.4500000000003,4395.6900000000005,3652.11
4451.79,4696.08,4140.6900000000005,4201.89,4403.85,4698.12,4643.04,3808.17,4439.55,4524.72,3936.69,3988.71,4402.32,3665.37
4443.12,4693.02,4134.57,4201.38,4405.89,4700.16,4647.12,3807.15,4439.55,4522.68,3931.08,3978.0,4401.81,3661.29
4450.26,4693.53,4135.59,4201.89,4406.4,4701.18,4645.08,3808.17,4441.08,4523.7,3934.14,3982.08,4401.3,3666.39
4441.08,4689.96,4124.37,4200.36,4408.95,4701.6900000000005,4652.22,3808.17,4440.57,4521.66,3926.4900000000002,3969.33,4395.18,3654.15
4452.81,4694.55,4137.63,4201.38,4403.85,4694.55,4644.06,3805.11,4440.06,4521.15,3937.71,3979.53,4403.85,3666.9
4440.06,4694.04,4128.96,4197.81,4408.95,4699.14,4649.67,3808.6800000000003,4438.53,4521.66,3930.06,3971.37,4400.28,3658.23
4442.1,4697.1,4134.06,4199.34,4406.91,4698.63,4646.61,3810.21,4437.51,4523.7,3931.08,3975.4500000000003,4401.3,3659.25
4446.18,4695.57,4138.14,4201.38,4402.83,4697.61,4643.55,3808.6800000000003,4438.53,4523.1900000000005,3933.12,3980.04,4403.34,3663.84
4434.45,4690.47,4129.9800000000005,4200.36,4405.89,4702.71,4650.18,3808.17,4439.04,4521.15,3926.4900000000002,3971.37,4396.2,3654.15
4451.28,4694.04,4141.71,4199.85,4398.24,4697.1,4641.51,3807.15,4439.55,4523.1900000000005,3941.28,3984.12,4402.32,3668.4300000000003
4441.08,4689.96,4129.47,4197.3,4401.81,4700.16,4648.65,3809.7000000000003,4438.53,4522.68,3932.1,3974.94,4398.24,3656.7000000000003
4441.08,4688.9400000000005,4129.47,4202.4,4406.4,4699.65,4650.18,3809.19,4439.55,4521.15,3929.55,3973.41,4397.7300000000005,3655.6800000000003
4452.3,4691.49,4137.12,4200.87,4402.83,4698.63,4644.06,3807.15,4440.06,4521.66,3938.73,3982.08,4403.85,3670.98
4435.47,4688.43,4124.88,4197.3,4407.93,4705.77,4653.24,3809.19,4438.53,4523.1900000000005,3929.55,3971.88,4398.24,3658.7400000000002
4448.7300000000005,4694.55,4137.12,4202.4,4406.91,4697.1,4644.57,3807.15,4440.57,4523.7,3936.69,3983.61,4401.81,3665.37
4443.12,4693.02,4131.51,4198.83,4407.42,4700.16,4647.63,3809.19,4439.55,4520.64,3929.04,3976.98,4397.7300000000005,3658.7400000000002
4433.9400000000005,4688.9400000000005,4127.43,4199.85,4406.91,4705.26,4652.22,3808.6800000000003,4437.0,4520.13,3927.51,3972.39,4397.7300000000005,3658.7400000000002
4450.77,4693.02,4137.63,4201.38,4404.36,4695.57,4642.02,3806.64,4440.06,4522.68,3939.2400000000002,3982.59,4404.87,3674.04
4442.1,4693.53,4125.9,4196.28,4410.99,4698.63,4647.63,3809.7000000000003,4439.55,4522.17,3927.51,3971.88,4399.26,3659.25
4450.26,4697.1,4135.59,4198.32,4404.36,4699.65,4644.57,3807.66,4439.04,4523.1900000000005,3935.16,3983.1,4403.34,3666.9
4446.18,4689.96,4132.02,4197.81,4401.81,4702.2,4646.1,3807.15,4439.55,4522.17,3930.57,3979.53,4401.3,3667.92
4438.02,4686.9,4123.86,4199.85,4406.4,4701.6900000000005,4650.18,3807.66,4438.53,4518.6,3923.94,3970.86,4398.24,3662.31
4451.79,4694.55,4137.12,4201.89,4402.83,4694.55,4642.02,3806.13,4439.04,4520.13,3938.73,3984.63,4404.87,3674.04
4434.45,4689.96,4125.39,4196.28,4405.38,4703.22,4652.22,3807.66,4437.51,4520.64,3927.0,3971.88,4396.71,3657.21
4440.06,4692.0,4134.57,4199.85,4401.3,4701.18,4646.61,3805.62,4437.0,4519.62,3929.55,3976.4700000000003,4398.24,3664.86
4447.2,4695.57,4137.63,4199.85,4401.3,4697.1,4642.53,3807.15,4437.0,4520.13,3933.63,3982.08,4402.32,3669.4500000000003
4434.96,4692.51,4126.41,4194.75,4408.95,4700.67,4650.6900000000005,3809.19,4437.0,4522.17,3929.04,3969.84,4398.24,3654.66
4445.16,4693.02,4139.67,4195.26,4404.36,4696.08,4642.02,3805.62,4439.04,4521.66,3939.75,3978.0,4402.32,3670.4700000000003
4432.92,4689.45,4128.96,4194.24,4403.85,4700.67,4647.12,3807.15,4439.04,4520.13,3927.51,3972.9,4394.67,3661.29
4440.57,4691.49,4132.53,4199.34,4402.83,4699.65,4646.1,3806.64,4439.55,4521.66,3930.57,3978.51,4399.26,3660.78
4449.24,4690.9800000000005,4138.14,4201.89,4403.85,4697.61,4642.53,3806.64,4438.53,4521.66,3937.2000000000003,3979.53,4405.89,3664.86
4430.37,4686.9,4124.88,4197.81,4406.91,4701.6900000000005,4652.22,3810.21,4437.0,4522.17,3924.4500000000003,3968.82,4395.18,3651.6
4444.65,4693.53,4135.59,4198.83,4401.3,4696.59,4643.55,3808.6800000000003,4440.57,4526.25,3935.16,3987.1800000000003,4401.81,3670.4700000000003
4439.04,4692.0,4127.9400000000005,4197.81,4405.89,4702.2,4645.08,3808.17,4439.04,4525.2300000000005,3932.1,3980.04,4402.83,3664.35
4435.9800000000005,4691.49,4130.49,4198.32,4406.91,4702.2,4649.16,3809.19,4437.51,4525.74,3931.08,3977.4900000000002,4401.81,3659.76
4444.65,4692.51,4140.18,4197.81,4402.32,4696.08,4646.1,3807.15,4441.08,4526.25,3936.1800000000003,3986.16,4403.85,3674.04
4431.9,4688.43,4127.43,4197.81,4408.4400000000005,4702.71,4649.16,3807.66,4440.57,4521.66,3925.4700000000003,3972.9,4396.71,3662.31
4443.63,4691.49,4137.12,4201.89,4405.89,4700.67,4642.02,3808.17,4438.53,4522.17,3934.65,3981.57,4401.81,3666.9
4439.04,4689.45,4134.06,4201.38,4406.4,4701.6900000000005,4649.67,3808.17,4437.51,4524.72,3932.1,3975.4500000000003,4399.77,3659.76
4435.47,4689.96,4132.53,4202.91,4406.4,4702.71,4649.67,3806.13,4436.49,4523.7,3931.59,3972.9,4396.71,3657.7200000000003
4448.7300000000005,4693.53,4138.65,4202.91,4400.79,4699.14,4640.49,3806.64,4437.51,4522.68,3938.2200000000003,3984.63,4400.28,3671.4900000000002
4436.49,4690.9800000000005,4127.43,4199.85,4403.34,4700.67,4652.22,3810.7200000000003,4438.53,4522.68,3927.0,3974.94,4396.71,3658.7400000000002
4444.65,4693.53,4139.67,4202.91,4400.79,4697.1,4648.14,3809.19,4439.55,4523.7,3937.71,3985.65,4402.83,3665.88
4440.57,4690.47,4133.04,4199.85,4405.38,4702.71,4648.65,3808.6800000000003,4437.0,4523.1900000000005,3931.08,3981.06,4400.79,3663.84
4434.96,4690.9800000000005,4126.41,4198.32,4411.5,4701.6900000000005,4652.7300000000005,3807.66,4438.02,4522.17,3923.4300000000003,3970.86,4399.26,3658.7400000000002
4453.32,4697.1,4143.24,4200.36,4404.36,4693.53,4641.51,3805.62,4441.59,4522.17,3939.75,3982.59,4405.38,3673.53
4436.49,4691.49,4129.47,4197.3,4405.38,4705.77,4651.2,3808.6800000000003,4437.51,4520.64,3930.06,3971.37,4395.6900000000005,3657.7200000000003
4444.65,4692.0,4129.9800000000005,4200.87,4404.87,4703.22,4647.12,3806.64,4438.53,4520.13,3932.1,3978.0,4401.3,3662.31
4453.83,4693.53,4133.04,4199.85,4404.36,4695.57,4639.9800000000005,3806.64,4442.61,4520.13,3933.63,3981.06,4405.38,3669.4500000000003
4437.0,4691.49,4127.9400000000005,4197.3,4405.89,4701.18,4647.63,3812.25,4438.02,4522.68,3927.0,3971.88,4397.22,3659.76
4447.71,4696.59,4138.14,4198.83,4400.28,4697.61,4642.02,3813.78,4437.51,4525.74,3937.71,3984.12,4402.32,3670.4700000000003
4434.96,4692.51,4125.39,4195.77,4404.87,4699.14,4648.14,3812.76,4439.55,4522.68,3925.98,3973.92,4399.77,3658.7400000000002
4434.45,4692.51,4131.0,4198.32,4404.36,4696.08,4645.59,3808.17,4438.02,4520.13,3928.53,3977.4900000000002,4400.79,3661.29
4442.1,4693.02,4136.1,4197.81,4400.79,4695.57,4644.06,3808.17,4435.9800000000005,4521.15,3935.16,3983.1,4402.83,3667.92
4432.41,4690.47,4123.86,4194.24,4403.85,4702.71,4651.2,3809.19,4437.51,4521.66,3924.96,3969.33,4396.71,3655.17
4451.28,4696.08,4136.61,4196.79,4401.81,4697.1,4640.49,3806.64,4442.61,4520.64,3934.65,3982.08,4402.83,3669.4500000000003
4439.55,4693.53,4128.45,4196.28,4408.4400000000005,4700.67,4645.59,3810.21,4438.02,4521.66,3929.04,3975.96,4398.24,3659.76
4432.41,4692.0,4127.9400000000005,4197.81,4408.4400000000005,4701.6900000000005,4649.16,3808.6800000000003,4432.92,4523.1900000000005,3929.04,3972.39,4398.75,3656.7000000000003
4447.2,4693.53,4137.12,4199.85,4400.79,4698.12,4643.55,3804.6,4437.0,4522.17,3936.69,3982.08,4406.4,3672.51
4434.96,4690.9800000000005,4125.9,4197.81,4405.38,4702.2,4650.6900000000005,3809.19,4440.06,4520.13,3927.0,3973.92,4399.26,3658.7400000000002
4439.55,4694.04,4138.14,4202.4,4404.87,4697.61,4644.06,3812.25,4439.55,4520.13,3934.65,3980.55,4401.3,3665.88
4434.45,4692.51,4133.55,4201.89,4406.91,4701.18,4646.61,3811.23,4438.53,4520.64,3929.55,3974.4300000000003,4398.24,3660.78
4437.51,4694.55,4128.96,4199.34,4406.91,4702.2,4650.6900000000005,3807.15,4438.53,4523.1900000000005,3928.53,3975.96,4396.71,3655.17
4454.34,4697.61,4139.16,4199.34,4402.83,4695.57,4644.06,3804.6,4439.55,4523.7,3939.75,3985.65,4403.85,3668.94
4439.55,4690.9800000000005,4128.45,4197.81,4406.91,4700.67,4650.18,3808.6800000000003,4438.02,4519.62,3928.53,3973.92,4398.75,3657.21
4445.67,4694.55,4138.65,4198.83,4402.83,4699.65,4645.08,3808.17,4437.0,4522.17,3934.65,3983.1,4403.34,3662.82
4444.65,4693.53,4136.1,4195.77,4402.32,4701.18,4647.63,3808.17,4436.49,4524.21,3933.12,3976.4700000000003,4402.83,3659.25
4436.49,4690.47,4128.45,4201.38,4407.42,4704.24,4651.71,3810.21,4436.49,4522.17,3927.51,3969.33,4397.7300000000005,3653.13
4446.6900000000005,4694.04,4139.67,4204.95,4404.36,4698.12,4642.53,3808.6800000000003,4438.02,4520.64,3937.71,3986.67,4403.85,3668.94
4431.9,4690.9800000000005,4128.96,4196.28,4406.4,4701.18,4650.6900000000005,3810.21,4439.04,4520.13,3927.0,3974.4300000000003,4398.75,3657.21
4443.63,4696.59,4136.61,4200.36,4404.87,4697.61,4646.61,3807.66,4440.57,4522.17,3934.65,3979.02,4399.77,3663.33
4448.22,4695.57,4137.63,4201.89,4405.89,4698.63,4644.57,3805.62,4439.55,4523.1900000000005,3935.16,3984.63,4400.79,3665.88
4431.9,4687.41,4126.41,4197.81,4410.99,4703.7300000000005,4650.18,3808.17,4438.02,4522.68,3924.96,3975.4500000000003,4396.71,3655.17
4451.28,4690.47,4139.16,4200.36,4402.32,4696.08,4640.49,3807.66,4440.57,4523.1900000000005,3936.69,3983.61,4403.34,3669.4500000000003
4440.06,4689.96,4128.45,4200.36,4403.85,4701.6900000000005,4651.2,3808.6800000000003,4439.04,4521.15,3929.55,3969.84,4398.75,3657.21
4437.0,4691.49,4131.51,4201.38,4404.87,4702.71,4649.16,3809.19,4438.53,4522.17,3934.65,3973.41,4399.77,3659.25
4452.81,4693.02,4137.12,4199.34,4400.79,4696.08,4638.96,3808.17,4441.59,4522.68,3938.73,3981.57,4402.32,3669.96
4442.1,4689.45,4126.92,4198.32,4404.36,4698.63,4649.67,3809.19,4439.04,4521.66,3924.96,3969.84,4397.22,3654.66
4450.26,4693.53,4140.18,4199.34,4403.34,4695.06,4644.57,3808.6800000000003,4437.51,4523.7,3935.67,3983.61,4405.89,3666.39
4440.06,4690.9800000000005,4130.49,4193.7300000000005,4405.89,4698.12,4646.1,3811.23,4438.53,4523.1900000000005,3931.59,3977.4900000000002,4400.79,3661.29
4440.06,4692.0,4130.49,4197.81,4405.38,4697.1,4646.61,3807.15,4439.04,4521.15,3934.65,3975.96,4397.7300000000005,3658.7400000000002
4451.79,4693.02,4140.6900000000005,4201.38,4402.32,4695.06,4642.02,3804.6,4438.53,4523.1900000000005,3941.28,3984.12,4404.36,3667.41
4432.92,4687.92,4122.84,4195.77,4407.42,4701.6900000000005,4652.22,3809.7000000000003,4438.53,4523.1900000000005,3925.98,3970.86,4396.2,3653.64
4446.6900000000005,4694.55,4133.55,4199.34,4403.85,4697.1,4643.55,3807.66,4443.12,4521.66,3936.69,3983.1,4398.75,3666.9
4447.71,4694.55,4132.02,4198.83,4404.36,4701.18,4643.04,3806.64,4439.55,4522.68,3934.65,3980.04,4398.75,3663.33
4439.55,4690.9800000000005,4126.92,4196.79,4406.91,4703.7300000000005,4647.63,3810.7200000000003,4435.9800000000005,4523.1900000000005,3928.02,3972.9,4398.75,3656.19
4449.24,4694.04,4137.63,4200.36,4404.87,4697.61,4643.04,3811.23,4440.57,4521.66,3936.69,3982.59,4402.32,3669.4500000000003
4435.9800000000005,4691.49,4125.9,4196.28,4408.4400000000005,4703.22,4650.6900000000005,3810.7200000000003,4441.59,4520.64,3925.98,3969.84,4395.6900000000005,3656.7000000000003
4444.14,4694.04,4135.59,4198.83,4403.85,4699.65,4642.02,3804.6,4440.06,4524.21,3934.65,3981.57,4402.83,3667.92
4442.1,4694.04,4134.06,4199.34,4405.89,4699.65,4642.53,3805.11,4437.51,4525.2300000000005,3932.61,3980.55,4401.81,3666.39
4435.47,4692.51,4128.96,4195.77,4406.4,4703.7300000000005,4649.16,3808.17,4435.9800000000005,4522.17,3925.4700000000003,3969.33,4395.18,3653.64
4449.24,4694.55,4143.75,4200.36,4400.79,4700.67,4639.9800000000005,3806.13,4438.53,4522.68,3939.75,3982.59,4402.83,3668.4300000000003
4431.9,4690.9800000000005,4128.96,4200.36,4407.42,4702.2,4648.65,3810.7200000000003,4439.55,4522.68,3927.51,3970.86,4398.24,3656.19
4441.08,4694.55,4135.59,4200.87,4401.81,4695.57,4644.06,3810.21,4439.04,4522.17,3932.1,3978.0,4399.77,3659.25
4449.75,4693.02,4137.63,4201.38,4398.24,4697.61,4641.0,3806.64,4438.53,4520.13,3935.67,3981.06,4399.77,3662.31
4435.47,4689.45,4122.84,4199.34,4405.89,4703.7300000000005,4649.67,3810.7200000000003,4437.51,4518.6,3928.02,3969.33,4394.67,3650.07
4447.2,4695.57,4136.1,4198.32,4402.32,4695.06,4642.02,3810.21,4438.02,4522.17,3942.3,3985.65,4404.87,3665.88
4438.02,4691.49,4129.9800000000005,4195.77,4404.36,4699.14,4648.14,3808.6800000000003,4436.49,4520.13,3931.59,3979.02,4400.79,3656.19
4442.61,4692.0,4135.08,4198.83,4405.38,4699.14,4647.63,3807.15,4437.51,4517.58,3931.59,3977.4900000000002,4400.28,3658.7400000000002
4449.75,4693.02,4140.6900000000005,4196.79,4401.81,4696.08,4642.02,3808.17,4439.04,4519.62,3938.73,3980.04,4403.85,3668.94
4433.9400000000005,4688.9400000000005,4127.43,4195.26,4404.36,4702.71,4649.67,3810.21,4438.02,4522.68,3931.59,3968.82,4398.75,3654.15
4448.7300000000005,4693.53,4139.67,4202.91,4402.83,4698.12,4641.0,3808.17,4440.57,4524.72,3941.28,3983.61,4405.38,3661.8
4444.14,4689.96,4132.53,4202.4,4406.4,4699.65,4643.04,3810.7200000000003,4439.55,4522.17,3934.14,3978.51,4402.32,3657.21
4442.61,4689.45,4129.9800000000005,4202.4,4405.89,4700.67,4647.12,3811.23,4439.04,4522.17,3932.1,3976.4700000000003,4399.26,3659.25
4453.83,4694.04,4136.61,4202.4,4401.81,4698.12,4644.57,3808.6800000000003,4442.1,4523.1900000000005,3937.71,3985.14,4403.34,3665.37
4437.0,4692.0,4125.9,4197.3,4406.91,4702.71,4651.71,3809.7000000000003,4438.53,4522.17,3928.53,3976.98,4399.77,3650.58
4449.24,4695.06,4139.67,4199.85,4405.38,4697.61,4641.0,3807.15,4435.47,4523.7,3939.2400000000002,3987.69,4404.36,3667.41
4448.7300000000005,4692.0,4135.08,4199.34,4408.95,4700.67,4643.55,3808.17,4438.53,4523.1900000000005,3932.1,3975.4500000000003,4398.75,3665.37
4444.14,4692.51,4129.47,4199.34,4409.97,4702.71,4648.14,3807.66,4442.1,4521.66,3927.0,3968.31,4397.22,3656.7000000000003
4459.4400000000005,4696.59,4140.6900000000005,4196.79,4399.77,4694.04,4638.96,3807.15,4442.1,4521.66,3941.28,3987.69,4407.42,3669.4500000000003
4442.61,4690.47,4129.47,4192.71,4403.85,4700.67,4648.14,3810.21,4438.02,4521.66,3929.55,3978.51,4399.26,3656.7000000000003
4451.28,4694.55,4139.67,4202.4,4404.87,4702.71,4645.08,3809.7000000000003,4440.06,4522.17,3934.14,3982.08,4399.77,3665.37
4455.87,4695.57,4137.63,4202.91,4404.87,4699.65,4644.57,3810.7200000000003,4441.59,4522.68,3935.67,3980.04,4401.81,3666.9
4441.08,4690.9800000000005,4127.9400000000005,4197.81,4405.38,4697.61,4650.18,3809.19,4439.55,4522.17,3930.06,3971.37,4398.24,3656.19
4450.26,4694.55,4138.14,4199.34,4399.77,4696.08,4639.47,3808.17,4441.08,4522.17,3940.26,3986.67,4402.83,3667.92
4439.04,4690.9800000000005,4125.39,4197.3,4404.87,4702.71,4646.1,3808.6800000000003,4440.06,4523.1900000000005,3929.55,3978.51,4398.24,3655.6800000000003
4445.16,4692.51,4133.04,4197.81,4402.83,4697.61,4643.04,3804.6,4440.06,4522.17,3934.14,3977.4900000000002,4401.81,3661.29
4452.3,4694.55,4137.63,4197.3,4399.77,4698.12,4640.49,3805.62,4440.57,4521.66,3936.1800000000003,3976.98,4401.81,3666.9
4438.02,4689.96,4125.9,4196.28,4406.91,4704.24,4649.16,3809.19,4439.55,4522.17,3924.96,3971.88,4395.6900000000005,3650.07
4449.75,4692.51,4139.16,4196.79,4404.36,4694.04,4641.51,3806.64,4441.59,4521.66,3936.1800000000003,3986.16,4402.83,3662.82
4443.12,4691.49,4128.96,4195.26,4405.89,4697.1,4647.63,3806.64,4441.08,4519.11,3928.53,3973.41,4397.7300000000005,3658.23
4445.67,4690.9800000000005,4129.47,4200.36,4405.38,4701.18,4649.16,3808.17,4439.04,4519.11,3930.06,3975.4500000000003,4398.24,3657.7200000000003
4452.81,4689.96,4140.18,4200.36,4402.83,4698.12,4645.59,3808.6800000000003,4439.55,4520.64,3937.71,3984.12,4404.36,3664.86
4439.55,4690.47,4131.0,4195.26,4405.89,4700.16,4652.7300000000005,3808.6800000000003,4440.57,4519.62,3927.51,3971.88,4399.26,3652.62
4450.77,4698.63,4137.63,4198.83,4401.81,4695.06,4644.57,3807.15,4440.57,4520.13,3935.16,3984.63,4402.32,3665.88
4438.53,4692.51,4127.43,4196.28,4405.38,4698.63,4648.14,3811.23,4437.51,4521.15,3930.57,3975.96,4397.7300000000005,3657.7200000000003
4440.57,4688.9400000000005,4129.9800000000005,4196.28,4404.87,4700.16,4648.14,3809.7000000000003,4437.51,4523.7,3933.12,3972.9,4397.22,3652.62
4458.93,4694.04,4143.24,4199.85,4401.3,4696.59,4641.0,3805.11,4440.06,4524.72,3939.75,3987.1800000000003,4405.38,3664.35
4440.57,4693.02,4130.49,4198.83,4404.87,4702.71,4651.2,3808.17,4439.04,4520.64,3925.98,3974.94,4399.26,3650.07
4448.22,4692.51,4135.08,4197.81,4404.36,4699.14,4645.59,3808.17,4439.04,4522.17,3937.71,3980.04,4403.34,3661.8
4440.57,4692.51,4128.96,4201.38,4406.91,4701.6900000000005,4653.75,3809.7000000000003,4437.0,4521.15,3928.53,3975.4500000000003,4399.77,3655.6800000000003
4453.83,4697.1,4138.65,4205.97,4401.81,4696.08,4646.1,3809.19,4440.57,4521.15,3936.1800000000003,3983.61,4402.83,3665.88
4440.57,4691.49,4123.35,4201.89,4408.95,4701.18,4651.2,3811.7400000000002,4438.53,4521.15,3928.53,3970.35,4395.18,3650.58
4448.7300000000005,4694.55,4133.04,4202.91,4404.87,4697.61,4642.53,3809.7000000000003,4435.9800000000005,4522.68,3937.2000000000003,3981.57,4402.83,3662.31
4449.75,4694.55,4135.59,4201.89,4400.79,4700.16,4643.55,3808.6800000000003,4438.02,4521.66,3934.65,3983.1,4404.36,3666.9
4437.51,4692.51,4127.43,4201.89,4408.4400000000005,4706.79,4653.24,3808.17,4437.0,4521.15,3925.98,3970.86,4395.6900000000005,3655.17
4455.87,4697.1,4138.65,4201.89,4403.34,4696.59,4643.55,3807.15,4437.51,4523.7,3938.73,3981.57,4403.85,3670.4700000000003
4443.63,4693.02,4127.43,4196.79,4402.32,4701.18,4650.6900000000005,3810.21,4438.53,4521.66,3927.0,3970.35,4402.32,3659.76
4441.08,4695.57,4133.04,4199.34,4404.87,4703.22,4647.12,3808.6800000000003,4439.55,4521.66,3930.06,3976.4700000000003,4402.32,3661.29
4448.7300000000005,4694.55,4136.61,4200.87,4405.89,4698.63,4639.9800000000005,3809.7000000000003,4438.02,4526.25,3936.1800000000003,3983.1,4400.79,3668.4300000000003
4439.04,4687.41,4126.41,4198.83,4407.42,4698.63,4650.6900000000005,3810.21,4437.0,4525.2300000000005,3927.51,3972.39,4396.2,3655.6800000000003
4453.32,4692.51,4137.12,4196.79,4401.3,4694.04,4645.08,3808.17,4439.55,4523.1900000000005,3938.2200000000003,3981.57,4403.34,3665.88
4445.16,4691.49,4127.9400000000005,4194.24,4403.85,4697.1,4644.57,3811.7400000000002,4438.02,4523.7,3932.61,3973.41,4399.26,3659.25
4446.6900000000005,4689.96,4133.04,4200.36,4403.34,4697.61,4641.0,3808.17,4440.06,4523.7,3934.14,3978.0,4399.77,3660.27
4453.32,4688.43,4138.14,4198.32,4401.3,4696.59,4640.49,3804.6,4442.1,4521.66,3936.1800000000003,3982.59,4404.36,3664.35
4437.0,4686.39,4121.82,4195.26,4407.93,4699.14,4652.22,3808.6800000000003,4439.04,4519.11,3924.4500000000003,3966.78,4398.24,3651.09
4452.3,4693.53,4135.08,4203.42,4404.87,4694.04,4643.04,3808.17,4441.59,4519.62,3938.2200000000003,3980.04,4402.83,3665.88
4445.16,4693.02,4129.47,4201.38,4407.42,4702.71,4648.14,3807.66,4441.59,4523.1900000000005,3930.57,3974.94,4397.7300000000005,3654.15
4440.57,4695.06,4125.39,4200.36,4407.42,4704.75,4651.71,3807.66,4437.0,4525.2300000000005,3925.98,3971.88,4396.71,3648.03
4460.46,4696.59,4137.63,4202.4,4403.85,4695.57,4641.0,3807.15,4437.51,4523.1900000000005,3936.69,3983.61,4404.87,3669.4500000000003
4448.22,4690.47,4129.9800000000005,4197.81,4408.95,4700.67,4646.61,3807.15,4439.04,4521.66,3928.02,3975.4500000000003,4400.28,3659.25
4452.81,4695.57,4139.16,4198.83,4403.34,4699.65,4643.04,3808.17,4439.55,4524.21,3936.1800000000003,3983.61,4404.87,3661.8
4453.32,4695.57,4133.04,4198.32,4402.83,4701.18,4647.63,3810.21,4438.02,4523.1900000000005,3932.1,3976.98,4401.81,3658.7400000000002
4449.24,4693.53,4131.51,4200.36,4407.42,4702.2,4651.71,3806.64,4436.49,4521.15,3927.51,3971.88,4397.7300000000005,3654.15
4455.87,4693.02,4144.26,4201.38,4405.38,4696.59,4642.02,3804.6,4439.55,4520.13,3937.2000000000003,3983.1,4404.87,3664.35
4442.61,4686.39,4131.0,4198.32,4405.89,4702.2,4649.67,3808.6800000000003,4440.06,4519.11,3928.02,3973.41,4399.26,3651.09
4455.36,4693.02,4137.63,4201.38,4401.81,4699.14,4646.1,3810.21,4439.04,4523.1900000000005,3935.16,3981.57,4400.28,3659.25
4456.89,4695.57,4135.08,4199.85,4403.85,4698.63,4647.63,3811.23,4438.02,4522.17,3934.14,3978.51,4400.79,3659.25
4446.6900000000005,4691.49,4128.96,4200.87,4408.95,4702.2,4654.26,3806.64,4436.49,4518.6,3930.57,3969.84,4398.75,3651.6
4457.91,4692.51,4142.7300000000005,4202.91,4404.36,4697.1,4643.55,3803.07,4436.49,4522.68,3941.28,3982.08,4404.36,3664.86
4445.16,4689.45,4131.51,4197.3,4405.38,4702.71,4650.6900000000005,3806.64,4436.49,4522.68,3930.57,3973.41,4398.75,3651.6
4454.85,4694.04,4137.63,4198.83,4401.81,4700.67,4649.16,3803.58,4439.55,4518.6,3936.69,3981.57,4401.3,3656.19
4458.93,4695.57,4138.14,4196.79,4401.81,4697.61,4645.59,3805.11,4440.06,4520.64,3934.65,3982.59,4401.81,3660.27
4441.59,4692.51,4127.43,4195.26,4409.46,4700.67,4652.22,3811.7400000000002,4438.02,4523.7,3922.41,3971.37,4396.71,3647.52
4460.97,4698.12,4141.71,4199.85,4402.32,4695.06,4641.0,3807.15,4442.61,4521.66,3939.2400000000002,3988.71,4403.85,3661.29
4453.83,4694.55,4128.45,4198.32,4404.36,4700.67,4647.63,3805.62,4441.59,4521.15,3932.1,3975.96,4397.7300000000005,3652.62
4448.7300000000005,4690.9800000000005,4127.9400000000005,4198.83,4406.91,4699.14,4650.6900000000005,3808.17,4438.02,4524.21,3929.04,3972.9,4397.7300000000005,3653.64
4459.4400000000005,4693.53,4138.14,4196.79,4401.3,4694.04,4641.51,3809.7000000000003,4440.06,4522.68,3937.2000000000003,3987.1800000000003,4405.38,3664.35
4448.22,4694.55,4124.37,4195.26,4403.85,4700.67,4648.65,3809.7000000000003,4440.06,4520.64,3928.02,3978.51,4399.26,3651.6
4457.4,4695.57,4135.08,4198.83,4403.34,4695.06,4643.04,3807.15,4441.08,4523.7,3934.14,3981.06,4401.81,3663.84
4449.24,4687.41,4131.0,4195.77,4405.89,4697.1,4647.12,3809.7000000000003,4440.06,4522.68,3928.02,3969.33,4399.26,3658.7400000000002
4448.7300000000005,4687.92,4128.45,4197.3,4403.85,4701.6900000000005,4649.16,3807.66,4436.49,4520.64,3929.04,3971.88,4400.28,3652.62
4465.56,4693.02,4137.12,4199.85,4399.77,4697.1,4638.96,3806.13,4437.51,4522.68,3937.71,3986.67,4405.38,3661.29
4452.81,4688.43,4129.47,4197.3,4407.42,4700.16,4647.12,3809.7000000000003,4437.51,4523.1900000000005,3925.98,3972.9,4397.7300000000005,3651.6
4460.46,4692.0,4140.6900000000005,4202.4,4402.32,4698.63,4644.57,3805.62,4439.55,4523.1900000000005,3934.65,3979.53,4402.32,3663.84
4457.4,4692.51,4130.49,4201.38,4402.32,4701.6900000000005,4647.12,3805.62,4440.06,4521.66,3931.08,3975.96,4400.79,3656.7000000000003
4452.81,4690.9800000000005,4122.33,4195.77,4407.42,4704.24,4650.6900000000005,3806.64,4439.04,4520.13,3926.4900000000002,3970.86,4397.7300000000005,3648.03
4466.58,4692.51,4140.18,4197.3,4402.83,4698.63,4641.51,3806.64,4441.59,4522.17,3938.2200000000003,3983.61,4404.87,3664.35
4452.81,4690.47,4132.02,4197.3,4405.38,4701.18,4647.63,3808.6800000000003,4439.04,4522.68,3928.02,3972.39,4398.24,3653.13
4460.46,4695.57,4136.1,4202.91,4404.36,4698.63,4642.53,3807.15,4435.9800000000005,4521.66,3935.16,3978.0,4399.77,3654.15
4463.01,4693.53,4134.06,4201.89,4404.87,4700.67,4642.53,3806.64,4436.49,4521.66,3933.12,3979.02,4399.26,3654.15
4455.87,4690.47,4125.9,4192.71,4406.4,4701.18,4648.65,3807.66,4438.53,4523.1900000000005,3923.4300000000003,3971.37,4396.2,3648.03
4470.15,4695.06,4138.65,4200.36,4402.32,4696.59,4639.9800000000005,3804.09,4440.06,4522.17,3940.26,3986.16,4405.89,3656.19
4459.95,4692.0,4129.47,4203.93,4405.38,4703.7300000000005,4650.6900000000005,3806.64,4438.02,4520.13,3933.12,3975.96,4401.3,3642.93
4461.99,4693.02,4131.51,4199.85,4403.34,4700.16,4650.18,3810.7200000000003,4437.0,4521.15,3928.53,3974.94,4400.28,3650.07
4460.97,4692.0,4133.55,4200.36,4404.36,4697.61,4643.04,3809.7000000000003,4437.51,4520.64,3932.61,3979.02,4399.26,3652.62
4451.79,4688.9400000000005,4125.39,4198.83,4408.4400000000005,4700.16,4648.65,3811.23,4439.55,4517.07,3929.55,3970.35,4395.18,3638.34
4467.6,4694.55,4138.65,4199.34,4401.81,4697.61,4643.55,3811.7400000000002,4440.57,4521.15,3937.2000000000003,3980.55,4400.79,3650.07
4458.42,4693.02,4131.0,4196.79,4403.85,4703.22,4650.18,3811.7400000000002,4438.53,4523.7,3928.02,3973.92,4396.71,3640.38
4462.5,4692.0,4133.04,4198.83,4402.83,4698.63,4646.61,3810.21,4441.08,4521.66,3933.12,3976.4700000000003,4399.26,3641.91
4469.13,4692.0,4139.67,4201.38,4401.3,4697.1,4639.47,3809.7000000000003,4442.1,4520.13,3939.75,3980.04,4403.85,3650.07
4455.87,4689.96,4128.96,4198.83,4404.87,4702.71,4650.18,3808.6800000000003,4439.04,4521.66,3929.04,3969.33,4398.75,3637.83
4470.66,4694.55,4138.65,4203.93,4400.28,4696.08,4645.08,3806.64,4441.08,4524.72,3938.2200000000003,3983.61,4401.81,3647.01
4463.52,4689.96,4127.43,4204.4400000000005,4407.42,4702.71,4649.16,3812.76,4440.57,4523.7,3930.57,3974.94,4398.24,3638.85
4462.5,4691.49,4127.9400000000005,4200.36,4409.46,4703.7300000000005,4651.2,3811.7400000000002,4438.02,4525.2300000000005,3931.59,3971.88,4402.32,3640.89
4474.74,4698.12,4140.18,4199.34,4403.34,4698.12,4641.51,3805.62,4438.53,4525.2300000000005,3939.75,3982.59,4406.91,3651.09
4456.89,4692.51,4128.45,4198.83,4407.42,4705.26,4647.12,3807.15,4438.02,4521.15,3925.98,3970.86,4398.24,3635.28
4467.09,4693.53,4139.67,4198.83,4405.89,4701.6900000000005,4642.53,3805.62,4438.53,4521.66,3936.1800000000003,3980.04,4403.34,3649.56
4467.6,4694.04,4133.55,4195.77,4407.93,4702.2,4648.14,3805.62,4438.02,4521.15,3933.12,3976.98,4400.28,3647.01
4462.5,4692.0,4127.43,4197.81,4408.4400000000005,4704.75,4652.22,3808.6800000000003,4438.53,4519.62,3927.0,3970.35,4394.67,3634.77
4476.27,4692.0,4140.18,4200.87,4403.34,4698.12,4641.0,3808.17,4441.08,4523.1900000000005,3939.2400000000002,3982.08,4400.28,3648.03
4460.97,4688.43,4127.9400000000005,4197.81,4407.93,4700.16,4649.16,3808.17,4439.55,4523.7,3925.98,3972.39,4395.18,3637.32
4470.66,4695.06,4136.1,4201.38,4402.32,4696.08,4644.57,3806.64,4440.06,4521.66,3929.55,3980.55,4401.3,3642.42
4476.78,4694.55,4134.06,4199.34,4402.32,4697.1,4645.59,3808.6800000000003,4439.55,4522.68,3933.12,3981.06,4402.32,3641.91
4463.01,4688.9400000000005,4122.84,4198.32,4409.46,4701.6900000000005,4653.75,3810.7200000000003,4438.53,4523.1900000000005,3927.51,3972.39,4394.67,3633.75
4473.72,4694.04,4137.63,4200.36,4402.32,4696.59,4641.0,3807.66,4439.55,4522.68,3935.16,3984.12,4402.32,3645.9900000000002
4462.5,4691.49,4126.92,4193.7300000000005,4404.87,4703.22,4648.14,3807.66,4437.0,4521.66,3923.94,3970.35,4397.7300000000005,3630.69
4468.11,4689.96,4132.02,4197.81,4406.4,4701.6900000000005,4648.14,3805.11,4438.53,4520.64,3931.08,3974.4300000000003,4397.22,3638.34
4475.25,4688.43,4139.16,4200.36,4402.32,4698.12,4642.02,3804.09,4442.61,4519.11,3937.2000000000003,3981.57,4400.79,3650.07
4461.99,4688.43,4128.45,4196.28,4404.87,4705.26,4651.71,3808.17,4440.57,4520.64,3923.94,3969.33,4395.6900000000005,3633.2400000000002
4476.27,4696.08,4139.16,4201.38,4403.85,4699.14,4646.61,3806.64,4440.57,4524.72,3934.14,3980.55,4401.3,3643.44
4469.64,4693.53,4129.47,4199.34,4405.38,4697.1,4647.12,3804.6,4438.53,4521.15,3929.55,3975.4500000000003,4397.7300000000005,3641.4
4470.15,4692.51,4128.96,4195.77,4402.32,4695.57,4645.59,3807.66,4435.9800000000005,4519.62,3931.59,3979.02,4399.26,3641.4
4476.27,4693.02,4135.59,4197.3,4400.28,4696.08,4644.57,3810.7200000000003,4437.51,4521.66,3936.69,3984.63,4405.38,3643.9500000000003
4461.99,4687.92,4125.9,4199.34,4405.89,4705.26,4652.7300000000005,3807.66,4440.06,4520.13,3925.4700000000003,3968.82,4399.26,3631.71
4475.25,4694.04,4138.14,4199.85,4400.79,4698.63,4642.02,3805.11,4441.59,4522.17,3937.2000000000003,3981.57,4403.34,3645.9900000000002
4466.58,4693.53,4128.96,4194.75,4405.38,4698.63,4646.1,3808.17,4438.53,4523.7,3931.08,3975.96,4400.79,3637.83
4467.09,4690.47,4126.41,4197.81,4409.46,4701.6900000000005,4648.65,3806.13,4437.0,4522.68,3925.98,3971.88,4400.79,3632.73
4485.45,4693.02,4139.67,4203.42,4403.34,4699.14,4638.45,3803.58,4439.04,4520.64,3937.2000000000003,3982.59,4405.89,3645.9900000000002
4466.07,4690.47,4125.9,4199.34,4404.87,4703.7300000000005,4648.65,3809.19,4437.51,4521.15,3927.51,3971.37,4396.71,3630.18
4473.21,4693.53,4133.55,4200.36,4403.85,4698.63,4646.1,3809.19,4438.53,4524.21,3934.65,3982.08,4400.28,3642.93
4477.29,4693.53,4134.06,4198.83,4405.89,4698.12,4646.61,3807.15,4439.55,4522.68,3932.1,3981.06,4402.32,3645.9900000000002
4467.6,4695.06,4128.96,4199.34,4408.4400000000005,4698.63,4651.2,3806.13,4438.53,4520.64,3928.53,3973.92,4399.26,3635.79
4475.76,4699.14,4137.12,4203.42,4404.87,4695.57,4643.55,3805.62,4439.55,4521.15,3938.2200000000003,3984.12,4402.32,3644.46
4466.58,4692.51,4124.88,4199.85,4409.46,4702.2,4649.67,3807.15,4438.02,4521.66,3927.51,3971.88,4398.24,3633.2400000000002
4477.29,4694.55,4136.1,4199.85,4407.42,4697.61,4644.06,3803.58,4439.04,4522.17,3934.14,3976.98,4402.83,3639.36
4478.31,4694.55,4137.12,4202.4,4406.4,4698.63,4644.06,3803.58,4438.02,4522.17,3933.12,3978.51,4400.79,3639.36
4468.11,4690.9800000000005,4126.41,4200.87,4406.4,4703.7300000000005,4651.2,3806.64,4436.49,4521.15,3925.98,3971.37,4396.71,3630.18
4483.41,4693.02,4136.1,4200.36,4400.79,4698.12,4644.57,3807.15,4438.53,4522.68,3938.73,3983.1,4404.87,3642.93
4469.64,4688.43,4125.39,4198.83,4406.4,4701.6900000000005,4652.22,3811.23,4438.53,4523.7,3928.53,3973.41,4398.24,3628.14
4473.72,4692.0,4134.57,4201.89,4405.89,4698.63,4646.61,3808.6800000000003,4438.53,4523.7,3931.59,3977.4900000000002,4399.26,3632.2200000000003
4481.37,4696.08,4139.67,4200.87,4403.34,4696.59,4642.02,3806.13,4438.02,4524.21,3936.69,3979.02,4400.79,3642.42
4464.54,4691.49,4123.86,4197.81,4407.93,4702.2,4652.22,3809.7000000000003,4437.0,4523.7,3927.51,3966.78,4394.16,3626.61
4476.78,4693.02,4134.06,4201.38,4403.34,4697.61,4639.9800000000005,3806.64,4439.04,4523.7,3937.71,3984.12,4402.83,3636.81
4471.68,4690.47,4128.96,4197.81,4406.4,4701.18,4643.55,3808.17,4438.53,4523.1900000000005,3930.57,3976.98,4398.75,3632.2200000000003
4474.2300000000005,4693.02,4132.02,4197.81,4405.38,4701.6900000000005,4648.65,3811.23,4438.53,4522.17,3930.06,3970.35,4395.6900000000005,3630.18
4483.92,4695.06,4137.12,4197.81,4399.77,4698.12,4641.51,3810.21,4441.08,4520.64,3938.2200000000003,3979.02,4401.81,3638.85
4464.03,4689.45,4121.82,4197.3,4406.4,4703.7300000000005,4649.16,3809.19,4439.55,4522.17,3924.4500000000003,3969.33,4396.71,3627.63
4478.82,4692.51,4136.61,4205.46,4403.34,4698.12,4643.55,3807.15,4439.04,4525.74,3934.14,3981.57,4402.32,3641.4
4478.31,4692.0,4134.57,4200.87,4403.85,4698.63,4645.59,3809.19,4439.04,4524.72,3931.08,3979.02,4401.3,3638.34
4468.62,4692.51,4128.45,4197.3,4406.4,4701.18,4648.65,3808.6800000000003,4438.02,4522.17,3926.4900000000002,3972.39,4397.22,3632.2200000000003
4483.92,4695.57,4138.65,4200.36,4400.79,4697.61,4641.51,3806.13,4438.53,4522.68,3938.2200000000003,3980.55,4403.34,3642.93
4468.11,4692.0,4127.9400000000005,4199.85,4405.89,4703.7300000000005,4651.2,3807.15,4437.51,4522.68,3927.51,3968.31,4396.2,3627.63
4475.76,4696.08,4138.65,4201.38,4403.34,4700.16,4644.06,3805.11,4438.02,4523.7,3935.67,3979.02,4401.3,3639.36
4485.96,4695.06,4138.14,4199.34,4400.28,4699.65,4643.04,3805.62,4439.04,4523.1900000000005,3935.67,3981.57,4405.38,3643.9500000000003
4475.76,4691.49,4128.96,4198.83,4404.87,4703.7300000000005,4651.71,3809.19,4438.53,4521.66,3927.51,3973.92,4399.77,3630.18
4481.37,4694.04,4140.6900000000005,4198.83,4402.32,4700.16,4644.57,3805.62,4439.55,4521.66,3937.2000000000003,3986.16,4402.83,3642.93
4466.58,4688.9400000000005,4126.92,4195.77,4407.42,4704.75,4650.6900000000005,3805.11,4438.02,4521.15,3925.4700000000003,3973.41,4397.7300000000005,3632.2200000000003
4476.78,4693.02,4132.53,4200.87,4404.36,4699.14,4646.61,3808.17,4437.0,4522.68,3933.12,3980.04,4401.3,3637.32
4485.45,4697.1,4139.16,4199.34,4401.3,4696.59,4644.57,3809.19,4437.0,4520.64,3941.79,3984.63,4402.32,3644.46
4468.11,4692.51,4126.92,4198.83,4407.42,4703.7300000000005,4650.6900000000005,3807.15,4438.02,4517.58,3931.59,3970.35,4393.65,3631.2000000000003
4478.82,4694.04,4138.14,4202.4,4403.85,4698.12,4639.9800000000005,3805.11,4441.59,4521.15,3939.75,3981.06,4402.83,3646.5
4470.15,4690.47,4129.9800000000005,4196.79,4404.36,4699.65,4649.67,3808.6800000000003,4439.04,4520.64,3930.57,3973.41,4402.83,3636.81
4471.68,4689.96,4132.53,4198.83,4404.36,4698.63,4649.67,3806.13,4437.0,4520.13,3931.08,3976.98,4402.32,3635.28
4479.84,4690.9800000000005,4137.63,4200.36,4404.36,4696.59,4639.47,3805.62,4439.04,4524.72,3936.69,3985.65,4404.36,3648.03
4463.01,4690.9800000000005,4126.41,4196.79,4407.93,4702.2,4650.18,3811.23,4438.53,4523.1900000000005,3927.0,3970.86,4396.2,3632.2200000000003
4479.84,4697.1,4140.18,4202.4,4400.79,4695.57,4647.12,3809.19,4439.04,4519.62,3941.28,3981.06,4401.3,3642.93
4464.54,4692.51,4132.02,4196.28,4406.4,4704.24,4645.59,3808.6800000000003,4436.49,4525.74,3930.57,3976.98,4401.81,3640.89
4479.84,4693.53,4138.14,4196.28,4401.81,4696.59,4639.47,3809.7000000000003,4438.02,4522.17,3935.16,3984.12,4404.36,3647.52
4465.05,4689.45,4122.84,4196.28,4405.89,4701.18,4647.12,3812.76,4438.02,4517.58,3926.4900000000002,3968.82,4393.14,3632.2200000000003
4474.74,4694.04,4137.63,4197.3,4403.34,4698.63,4639.9800000000005,3806.64,4437.0,4521.66,3935.67,3981.57,4401.3,3644.46
4473.21,4690.9800000000005,4133.04,4194.24,4403.85,4699.14,4646.61,3804.09,4437.51,4522.17,3927.0,3977.4900000000002,4403.85,3641.4
4464.03,4687.92,4123.86,4198.83,4404.36,4701.18,4651.2,3807.15,4440.57,4519.62,3927.51,3968.31,4398.75,3634.26
4476.78,4692.0,4136.1,4202.4,4401.3,4697.61,4641.0,3809.7000000000003,4441.08,4521.66,3942.81,3980.04,4400.79,3649.56
4459.4400000000005,4689.96,4123.86,4198.32,4407.93,4702.71,4652.7300000000005,3810.7200000000003,4437.0,4520.64,3926.4900000000002,3968.31,4395.18,3634.77
4470.66,4696.59,4134.57,4201.89,4404.87,4697.61,4647.12,3806.13,4439.55,4519.62,3933.12,3980.04,4402.83,3643.44
4477.29,4696.59,4138.14,4199.85,4402.32,4698.12,4642.53,3806.64,4441.08,4522.17,3937.2000000000003,3982.08,4403.85,3649.56
4465.56,4691.49,4127.9400000000005,4198.83,4406.4,4702.2,4650.6900000000005,3808.17,4437.51,4521.66,3929.04,3973.92,4396.2,3638.85
4480.86,4695.06,4138.65,4199.85,4401.81,4697.1,4643.04,3804.6,4439.55,4519.11,3939.2400000000002,3987.69,4403.34,3652.11
4467.09,4691.49,4131.51,4195.77,4404.87,4703.22,4647.63,3807.15,4438.02,4519.62,3930.57,3974.94,4400.28,3640.38
4468.62,4693.02,4138.65,4199.34,4405.89,4702.2,4646.61,3808.6800000000003,4436.49,4522.17,3933.12,3975.4500000000003,4400.28,3639.87
4477.29,4694.55,4137.63,4200.87,4404.87,4700.16,4645.08,3807.66,4439.04,4523.1900000000005,3932.61,3980.04,4401.3,3642.93
4465.56,4693.02,4127.43,4200.36,4407.93,4702.2,4648.14,3809.19,4438.02,4523.7,3924.96,3973.92,4398.24,3636.3
4478.31,4698.12,4139.16,4201.89,4401.3,4694.55,4638.96,3809.19,4438.02,4524.21,3939.2400000000002,3985.14,4404.36,3653.64
4467.6,4693.02,4126.92,4197.81,4405.38,4700.67,4649.67,3809.7000000000003,4438.02,4519.62,3930.06,3972.9,4396.71,3640.89
4465.56,4692.51,4131.51,4201.89,4407.42,4702.2,4651.71,3808.6800000000003,4438.53,4519.11,3929.55,3973.41,4396.71,3637.83
4473.72,4694.04,4139.67,4201.38,4403.34,4696.08,4645.08,3808.17,4439.55,4521.66,3936.69,3982.08,4403.34,3647.52
4461.99,4688.9400000000005,4126.92,4197.81,4407.42,4702.71,4651.71,3806.64,4439.04,4522.68,3928.53,3969.84,4395.6900000000005,3635.28
4476.27,4693.02,4140.18,4202.4,4402.83,4699.65,4643.55,3805.11,4438.53,4525.2300000000005,3937.71,3978.0,4402.83,3650.58
4469.64,4693.02,4133.55,4199.34,4401.3,4699.65,4647.63,3809.7000000000003,4438.53,4522.68,3932.1,3972.9,4402.83,3643.9500000000003
4464.54,4692.0,4128.96,4200.36,4403.85,4700.16,4648.14,3809.7000000000003,4439.55,4520.13,3931.59,3973.92,4399.26,3635.28
4474.74,4693.02,4137.63,4204.4400000000005,4402.83,4697.61,4642.02,3810.7200000000003,4438.53,4523.1900000000005,3938.2200000000003,3982.59,4403.85,3648.03
4460.46,4690.9800000000005,4126.41,4201.38,4405.38,4702.71,4651.71,3811.7400000000002,4436.49,4524.72,3926.4900000000002,3970.86,4400.28,3638.34
4468.62,4696.08,4135.59,4199.34,4402.32,4697.61,4642.53,3807.15,4437.51,4523.7,3934.65,3980.04,4402.32,3644.9700000000003
4462.5,4692.0,4130.49,4197.81,4406.4,4700.16,4644.06,3811.7400000000002,4436.49,4522.17,3930.57,3974.94,4398.75,3640.89
4458.93,4690.9800000000005,4130.49,4200.87,4406.91,4701.18,4651.2,3812.76,4435.47,4523.7,3930.57,3973.92,4400.79,3637.32
4477.29,4696.08,4143.75,4200.36,4401.81,4694.55,4641.51,3806.64,4438.53,4524.21,3941.79,3985.65,4404.87,3652.62
4459.4400000000005,4691.49,4127.43,4194.75,4407.93,4702.71,4649.16,3809.7000000000003,4440.57,4522.17,3926.4900000000002,3969.33,4392.12,3637.83
4467.6,4693.53,4135.59,4200.36,4402.32,4701.6900000000005,4645.59,3809.7000000000003,4442.61,4523.1900000000005,3933.12,3978.51,4397.7300000000005,3641.91
4477.8,4694.04,4135.08,4203.42,4400.79,4699.14,4644.57,3808.17,4440.57,4523.7,3933.63,3982.08,4400.79,3644.46
4467.09,4691.49,4125.39,4200.36,4405.89,4701.6900000000005,4650.6900000000005,3809.19,4437.0,4522.17,3927.0,3972.39,4394.16,3636.81
4476.78,4695.06,4139.16,4200.87,4402.32,4698.12,4643.04,3808.17,4441.08,4522.68,3938.73,3984.63,4402.83,3650.58
4462.5,4690.47,4127.43,4201.89,4408.95,4702.71,4650.6900000000005,3809.19,4439.55,4523.7,3927.0,3973.92,4399.77,3638.85
4468.11,4693.02,4133.04,4203.42,4405.89,4697.61,4646.61,3805.62,4435.47,4522.17,3933.12,3976.98,4399.77,3645.48
4476.27,4695.06,4139.16,4195.77,4401.3,4696.59,4644.06,3805.11,4435.9800000000005,4520.64,3939.2400000000002,3979.53,4401.81,3654.15
4463.52,4689.96,4128.96,4194.75,4408.95,4702.2,4652.7300000000005,3808.6800000000003,4438.02,4523.1900000000005,3927.0,3970.35,4396.71,3638.85
4477.8,4693.02,4141.71,4201.38,4404.87,4695.57,4641.51,3807.15,4441.08,4525.2300000000005,3936.69,3983.61,4402.83,3647.01
4465.05,4691.49,4132.02,4197.81,4403.34,4701.18,4647.63,3806.64,4439.04,4520.13,3931.59,3972.39,4398.75,3637.83
4463.52,4693.53,4131.51,4197.81,4405.38,4701.18,4650.6900000000005,3807.15,4438.02,4518.6,3930.57,3975.96,4399.77,3642.42
4475.76,4694.55,4138.14,4199.34,4404.87,4696.08,4645.59,3807.15,4440.06,4521.66,3932.1,3986.67,4402.83,3649.56
4462.5,4690.9800000000005,4127.43,4199.34,4405.89,4701.6900000000005,4649.67,3807.66,4440.06,4522.17,3923.94,3971.37,4395.18,3633.2400000000002
4474.74,4695.57,4140.6900000000005,4202.4,4400.28,4695.06,4641.0,3807.15,4440.57,4520.64,3937.71,3983.1,4401.3,3651.09
4469.13,4692.0,4133.04,4196.28,4405.38,4698.12,4647.12,3808.6800000000003,4439.04,4521.66,3930.57,3978.51,4400.28,3645.9900000000002
4463.01,4691.49,4130.49,4195.77,4406.91,4702.2,4650.6900000000005,3806.64,4440.06,4524.21,3928.02,3973.41,4399.77,3639.87
4473.21,4693.02,4138.65,4198.32,4401.3,4694.55,4642.02,3805.11,4441.08,4520.13,3939.2400000000002,3982.08,4405.38,3651.09
4461.99,4688.43,4126.41,4194.75,4407.93,4699.65,4650.6900000000005,3807.66,4437.51,4518.09,3928.02,3971.88,4398.24,3633.2400000000002
4473.72,4693.02,4136.61,4198.83,4403.85,4702.2,4645.59,3806.64,4438.02,4525.2300000000005,3935.16,3981.06,4401.81,3642.42
4468.62,4690.9800000000005,4129.9800000000005,4199.85,4402.32,4704.24,4648.14,3806.13,4438.02,4524.21,3931.08,3977.4900000000002,4400.28,3645.48
4463.01,4690.47,4126.92,4199.85,4405.89,4702.2,4652.22,3805.62,4439.55,4520.13,3926.4900000000002,3974.94,4396.2,3639.87
4481.37,4695.57,4141.2,4201.38,4403.34,4695.57,4642.02,3804.6,4443.12,4521.15,3937.71,3987.1800000000003,4402.83,3652.62
4467.09,4691.49,4127.43,4196.79,4407.93,4701.18,4648.14,3808.17,4439.04,4519.62,3925.98,3973.41,4398.75,3638.85
4469.64,4695.06,4133.55,4199.85,4407.42,4697.1,4643.04,3808.17,4437.51,4521.66,3935.16,3979.02,4401.3,3642.93
4469.13,4694.55,4137.12,4201.38,4405.89,4698.63,4644.57,3806.13,4440.06,4522.68,3937.2000000000003,3979.02,4400.28,3643.9500000000003
4461.99,4690.47,4133.04,4198.83,4406.91,4703.7300000000005,4652.22,3805.11,4436.49,4520.64,3928.02,3971.37,4396.71,3636.3
4477.29,4695.57,4141.2,4198.32,4403.34,4697.61,4642.02,3805.62,4437.51,4523.1900000000005,3937.71,3984.12,4404.36,3651.6
4460.46,4693.53,4124.37,4197.3,4408.4400000000005,4704.75,4648.65,3807.66,4438.02,4524.21,3928.02,3973.92,4398.75,3640.89
4467.6,4694.55,4134.06,4203.42,4403.85,4702.71,4647.12,3805.11,4436.49,4521.66,3933.12,3981.57,4400.28,3645.9900000000002
4478.82,4695.57,4141.2,4203.93,4400.79,4699.14,4641.0,3808.17,4437.51,4522.68,3937.71,3986.16,4404.36,3651.6
4458.93,4693.02,4125.9,4199.85,4407.93,4703.7300000000005,4647.63,3813.78,4439.04,4523.7,3924.96,3971.37,4398.75,3634.26
4470.15,4695.06,4137.12,4199.85,4403.85,4697.1,4643.55,3809.7000000000003,4439.04,4523.1900000000005,3934.65,3984.12,4403.85,3644.46
4464.54,4692.51,4129.47,4197.81,4403.34,4700.16,4651.71,3809.19,4438.02,4522.17,3927.51,3976.98,4399.26,3638.85
4465.05,4696.59,4132.53,4201.38,4403.85,4699.65,4650.18,3806.13,4439.55,4521.66,3927.51,3974.94,4401.3,3640.38
4475.25,4695.57,4141.71,4201.89,4402.83,4696.59,4642.53,3804.6,4441.08,4520.64,3933.12,3981.57,4405.89,3648.03
4459.4400000000005,4689.45,4126.92,4198.83,4405.89,4700.67,4649.67,3808.17,4440.57,4520.13,3924.4500000000003,3969.84,4396.2,3632.73
4473.72,4697.61,4136.61,4203.42,4398.24,4694.55,4642.02,3805.11,4438.53,4522.17,3936.69,3978.0,4402.32,3647.52
4471.17,4695.57,4131.0,4201.89,4400.79,4699.14,4646.1,3805.62,4434.96,4523.7,3931.08,3972.9,4402.83,3644.46
4464.54,4691.49,4129.9800000000005,4202.4,4404.87,4702.2,4648.65,3810.21,4437.51,4521.15,3930.57,3972.9,4398.75,3639.36
4473.21,4695.06,4138.14,4200.36,4400.79,4697.1,4641.51,3810.7200000000003,4441.08,4520.13,3937.71,3981.06,4399.26,3650.07
4455.36,4692.0,4126.92,4194.75,4406.4,4702.71,4649.67,3809.19,4437.51,4521.66,3924.96,3968.82,4394.16,3635.79
4467.6,4693.53,4140.6900000000005,4200.87,4404.87,4698.63,4642.02,3808.17,4437.51,4523.7,3937.71,3982.59,4403.34,3646.5
4470.15,4693.53,4136.61,4200.36,4404.87,4698.63,4643.55,3812.25,4438.53,4521.66,3935.16,3979.02,4400.28,3644.46
4460.46,4693.02,4129.47,4197.3,4407.93,4702.2,4650.18,3810.21,4437.0,4521.15,3924.96,3971.37,4395.6900000000005,3634.77
4470.15,4696.59,4143.24,4199.85,4402.83,4696.08,4641.51,3803.58,4440.06,4522.17,3936.1800000000003,3986.67,4406.4,3649.05
4456.89,4690.47,4129.9800000000005,4200.36,4406.91,4698.63,4649.16,3805.62,4441.59,4520.13,3929.04,3973.92,4400.79,3637.32
4469.13,4690.9800000000005,4132.02,4201.38,4405.89,4696.08,4643.55,3809.19,4439.55,4521.66,3935.67,3978.51,4400.28,3644.9700000000003
4474.74,4691.49,4131.0,4197.81,4405.89,4697.61,4642.02,3809.19,4436.49,4520.64,3937.2000000000003,3981.57,4400.28,3647.01
4461.99,4689.96,4126.41,4201.38,4409.46,4701.6900000000005,4651.71,3806.13,4437.51,4518.6,3931.08,3975.4500000000003,4396.71,3634.26
4475.25,4693.53,4138.65,4204.95,4403.34,4696.08,4643.04,3804.6,4439.55,4521.66,3937.2000000000003,3986.16,4404.87,3649.56
4464.03,4693.02,4124.88,4196.79,4406.91,4701.6900000000005,4648.65,3807.66,4437.0,4521.66,3925.98,3973.92,4398.24,3639.87
4466.58,4697.1,4132.53,4197.3,4406.91,4700.16,4647.63,3806.13,4438.53,4523.1900000000005,3933.63,3980.04,4397.22,3640.38
4472.1900000000005,4694.04,4142.22,4197.81,4404.36,4697.61,4643.04,3804.6,4440.06,4524.21,3938.2200000000003,3983.1,4401.3,3648.03
4460.46,4689.96,4131.51,4197.3,4407.42,4702.71,4650.18,3807.15,4438.02,4522.17,3927.51,3967.8,4400.28,3638.34
4474.2300000000005,4698.12,4141.71,4202.4,4406.4,4699.65,4643.55,3805.62,4439.55,4522.17,3937.71,3980.55,4405.89,3647.52
4461.4800000000005,4694.55,4130.49,4200.36,4410.4800000000005,4704.24,4650.6900000000005,3806.64,4440.06,4522.68,3929.04,3973.41,4398.75,3634.77
4460.97,4693.02,4131.0,4201.38,4405.38,4701.6900000000005,4650.18,3807.15,4439.55,4521.15,3930.57,3975.4500000000003,4398.24,3638.34
4476.27,4695.06,4139.16,4201.89,4402.32,4696.59,4643.04,3807.66,4439.55,4520.64,3938.73,3984.63,4402.83,3651.09
4461.4800000000005,4690.9800000000005,4128.45,4199.85,4410.99,4701.6900000000005,4651.2,3808.17,4437.0,4522.17,3927.0,3973.92,4395.18,3634.77
4473.21,4695.06,4141.71,4200.87,4403.34,4698.12,4641.51,3804.6,4437.51,4523.7,3936.69,3985.65,4401.3,3648.54
4466.58,4693.02,4134.57,4196.28,4402.83,4700.67,4646.1,3807.15,4438.02,4524.21,3932.61,3979.02,4401.3,3646.5
4461.99,4692.51,4131.51,4197.81,4405.89,4700.16,4650.6900000000005,3806.13,4440.06,4524.72,3931.59,3974.4300000000003,4397.7300000000005,3637.83
4478.31,4693.02,4140.18,4201.38,4401.3,4694.55,4641.51,3804.6,4443.63,4524.72,3938.2200000000003,3983.61,4402.32,3649.56
4461.4800000000005,4687.41,4127.9400000000005,4198.83,4404.36,4703.7300000000005,4647.63,3809.19,4440.57,4522.68,3925.4700000000003,3970.86,4399.26,3638.85
4467.6,4691.49,4137.63,4201.38,4403.34,4700.16,4641.51,3807.66,4438.53,4522.68,3935.16,3980.04,4402.83,3646.5
4466.07,4692.51,4130.49,4198.83,4406.4,4697.61,4645.59,3807.66,4437.51,4521.15,3931.59,3978.51,4400.28,3642.42
4457.91,4692.51,4125.39,4198.32,4407.42,4700.67,4651.2,3807.66,4437.51,4519.11,3926.4900000000002,3973.41,4398.24,3635.28
4475.25,4696.08,4143.75,4198.32,4399.77,4694.55,4641.51,3806.13,4441.59,4519.62,3940.26,3986.16,4405.89,3654.66
4460.46,4691.49,4133.04,4196.79,4405.38,4699.14,4649.16,3809.19,4440.57,4520.64,3929.55,3974.4300000000003,4398.24,3645.48
4463.52,4693.02,4136.1,4201.38,4405.38,4698.63,4645.08,3807.15,4438.53,4522.68,3931.59,3979.53,4400.79,3648.03
4464.54,4689.96,4133.04,4196.79,4403.34,4698.63,4645.59,3806.13,4439.55,4523.1900000000005,3931.08,3976.98,4400.79,3647.52
4453.83,4687.41,4124.37,4194.75,4407.93,4702.2,4652.7300000000005,3807.66,4440.57,4524.21,3927.51,3969.33,4395.6900000000005,3636.81
4471.17,4696.08,4141.71,4198.83,4403.34,4696.08,4642.02,3807.66,4442.1,4525.2300000000005,3941.28,3982.08,4404.36,3652.11
4460.46,4690.9800000000005,4133.55,4195.77,4405.38,4702.71,4648.14,3808.6800000000003,4440.06,4520.64,3929.55,3970.35,4399.26,3639.36
4463.52,4690.9800000000005,4133.55,4196.79,4405.38,4699.65,4646.61,3806.13,4438.53,4518.6,3932.61,3978.51,4400.28,3641.91
4473.21,4694.04,4134.57,4196.79,4402.83,4694.55,4642.02,3804.6,4438.53,4522.17,3936.69,3985.65,4403.34,3651.09
4459.4400000000005,4688.43,4126.41,4195.77,4406.4,4703.7300000000005,4650.6900000000005,3804.6,4437.0,4523.1900000000005,3924.96,3970.86,4396.2,3638.34
4468.11,4693.02,4140.6900000000005,4199.34,4403.85,4700.67,4643.04,3804.09,4438.53,4521.66,3938.73,3983.1,4401.3,3650.58
4454.85,4693.53,4130.49,4197.81,4407.42,4700.16,4648.14,3809.7000000000003,4438.53,4520.64,3932.1,3976.98,4397.7300000000005,3640.89
4455.36,4692.0,4132.53,4197.81,4406.91,4700.67,4648.65,3808.6800000000003,4440.06,4522.17,3930.57,3974.94,4398.75,3639.87
4468.62,4693.02,4140.18,4196.28,4401.81,4700.67,4643.04,3807.15,4439.55,4522.17,3938.2200000000003,3982.59,4406.91,3652.62
4455.87,4693.02,4126.92,4196.28,4404.87,4705.26,4650.18,3809.7000000000003,4435.47,4520.13,3928.02,3973.41,4400.79,3637.83
4471.68,4696.59,4140.18,4201.38,4402.32,4698.63,4642.02,3808.17,4440.06,4524.21,3937.2000000000003,3984.12,4401.81,3648.54
4468.11,4692.51,4132.53,4199.85,4405.38,4700.67,4647.63,3809.7000000000003,4443.12,4525.74,3933.12,3976.98,4399.77,3647.01
4460.97,4693.02,4129.9800000000005,4202.91,4407.93,4699.65,4651.2,3811.23,4438.02,4522.68,3933.12,3973.41,4401.3,3642.42
4475.25,4698.63,4142.7300000000005,4202.91,4404.36,4696.08,4642.02,3807.15,4436.49,4523.7,3941.28,3985.14,4404.87,3652.62
4457.91,4693.53,4126.92,4198.83,4406.4,4706.28,4650.18,3806.13,4438.53,4522.68,3925.98,3970.35,4393.65,3637.83
4465.05,4693.53,4135.08,4202.91,4400.79,4701.18,4644.57,3805.62,4441.08,4523.1900000000005,3933.63,3978.0,4400.28,3646.5
4469.13,4693.02,4137.12,4199.85,4404.87,4697.61,4643.55,3807.15,4438.02,4523.7,3935.16,3979.02,4403.85,3648.54
4462.5,4694.04,4132.53,4199.85,4408.95,4702.2,4647.12,3806.64,4434.45,4523.1900000000005,3931.08,3973.92,4398.24,3642.42
4473.21,4695.57,4139.16,4200.87,4401.3,4699.14,4640.49,3806.13,4435.47,4523.7,3939.2400000000002,3984.63,4404.36,3653.64
4454.34,4688.9400000000005,4125.39,4195.26,4404.36,4700.16,4650.6900000000005,3809.19,4439.04,4523.7,3928.02,3972.39,4399.26,3637.83
4461.99,4692.51,4134.57,4199.85,4402.83,4695.57,4645.08,3807.66,4440.57,4523.7,3936.1800000000003,3981.06,4400.79,3647.01
4469.13,4693.02,4134.06,4201.38,4401.81,4698.63,4641.51,3807.66,4438.02,4522.68,3937.71,3980.04,4401.3,3650.07
4451.28,4690.47,4123.86,4196.28,4405.38,4702.2,4650.18,3809.7000000000003,4437.0,4523.1900000000005,3924.96,3965.76,4396.71,3634.26
4466.58,4695.06,4137.12,4198.83,4400.28,4693.02,4641.51,3809.19,4439.04,4524.72,3933.12,3980.55,4402.32,3647.52
4463.01,4691.49,4123.86,4196.79,4403.85,4699.65,4646.61,3810.7200000000003,4436.49,4523.1900000000005,3927.51,3973.92,4396.2,3641.91
4468.62,4693.02,4140.18,4197.81,4401.3,4697.1,4639.47,3804.6,4441.08,4523.1900000000005,3936.69,3982.59,4404.36,3651.6
4460.97,4688.9400000000005,4127.43,4196.79,4406.91,4702.71,4647.63,3807.66,4439.04,4523.7,3925.98,3973.92,4396.71,3638.85
4474.2300000000005,4693.53,4134.06,4199.85,4402.32,4701.18,4644.06,3806.64,4438.53,4521.15,3934.14,3983.1,4403.34,3650.07
4461.4800000000005,4692.0,4127.9400000000005,4199.85,4401.81,4701.6900000000005,4652.22,3807.15,4438.53,4519.62,3929.04,3973.41,4400.79,3638.85
4460.46,4694.04,4130.49,4200.36,4403.85,4697.1,4649.16,3807.15,4437.51,4526.25,3932.1,3974.94,4396.71,3637.83
4472.7,4696.08,4138.14,4200.87,4403.85,4694.55,4639.47,3805.11,4437.51,4526.76,3938.73,3983.1,4401.3,3650.07
4458.93,4689.96,4129.47,4200.87,4405.89,4701.6900000000005,4649.67,3806.13,4438.53,4521.15,3926.4900000000002,3971.88,4399.26,3636.81
4471.17,4694.55,4144.77,4202.91,4400.79,4695.57,4643.55,3804.09,4441.08,4524.72,3937.71,3984.63,4403.34,3649.05
4465.56,4692.51,4135.08,4195.26,4405.89,4699.14,4646.61,3804.6,4438.53,4526.25,3930.57,3978.0,4398.24,3645.9900000000002
4459.4400000000005,4690.9800000000005,4129.47,4192.71,4408.95,4702.71,4650.18,3805.11,4438.02,4521.15,3924.96,3973.92,4397.22,3638.85
4472.7,4696.08,4141.71,4196.79,4402.32,4697.61,4641.0,3806.64,4442.1,4518.6,3938.73,3985.65,4406.4,3650.58
4457.4,4692.0,4129.47,4197.3,4406.91,4704.24,4649.67,3810.7200000000003,4440.06,4518.09,3928.53,3969.84,4399.26,3636.81
4467.09,4691.49,4137.63,4200.87,4404.36,4699.65,4646.61,3808.17,4438.53,4521.66,3934.14,3978.0,4399.77,3645.9900000000002
4469.13,4692.0,4134.57,4198.83,4403.34,4698.63,4646.61,3807.15,4439.55,4524.72,3934.65,3982.08,4400.28,3647.52
4459.4400000000005,4695.06,4128.45,4199.85,4407.42,4699.65,4649.16,3807.66,4438.53,4523.7,3930.57,3974.94,4400.28,3637.83
4470.66,4698.12,4141.71,4204.4400000000005,4403.85,4692.51,4640.49,3806.64,4440.06,4522.68,3939.2400000000002,3984.63,4405.38,3654.66
4456.89,4690.9800000000005,4131.0,4200.87,4407.42,4699.65,4650.18,3810.21,4439.55,4521.15,3929.04,3973.41,4397.7300000000005,3646.5
4462.5,4693.53,4136.61,4199.85,4406.91,4698.12,4647.63,3807.66,4438.02,4522.68,3935.67,3978.0,4401.81,3646.5
4466.58,4693.53,4136.1,4197.81,4406.4,4696.59,4645.08,3806.64,4439.04,4523.1900000000005,3935.67,3981.06,4402.83,3645.48
4454.85,4688.9400000000005,4125.9,4198.32,4408.95,4703.22,4651.71,3810.21,4440.06,4521.66,3925.98,3973.41,4394.67,3637.32
4470.66,4693.53,4138.65,4201.89,4402.32,4699.14,4640.49,3809.19,4441.08,4521.66,3939.2400000000002,3984.63,4400.28,3650.58
4462.5,4692.51,4131.0,4198.83,4406.91,4701.18,4647.12,3809.19,4438.02,4522.68,3930.06,3971.37,4398.24,3639.87
4465.56,4694.55,4134.57,4199.34,4406.4,4700.16,4648.14,3808.17,4436.49,4522.68,3930.06,3974.94,4399.77,3643.44
4472.1900000000005,4693.53,4138.14,4196.28,4401.3,4700.16,4643.04,3808.6800000000003,4440.06,4523.1900000000005,3933.12,3985.65,4399.77,3647.52
4457.91,4687.92,4122.84,4193.7300000000005,4404.36,4703.7300000000005,4651.2,3810.7200000000003,4440.57,4522.68,3924.4500000000003,3972.39,4395.18,3634.26
4471.17,4694.04,4134.57,4199.34,4402.32,4695.06,4644.06,3804.6,4440.06,4522.17,3937.71,3979.02,4404.87,3651.09
4459.95,4693.53,4129.47,4195.77,4406.91,4697.1,4647.12,3804.09,4439.04,4522.17,3930.06,3973.41,4398.24,3643.44
4456.38,4690.47,4131.0,4196.79,4404.36,4699.14,4648.14,3806.64,4440.06,4523.7,3927.51,3975.4500000000003,4395.6900000000005,3636.81
4474.2300000000005,4690.9800000000005,4142.7300000000005,4199.85,4400.79,4697.1,4640.49,3806.64,4442.1,4521.15,3938.2200000000003,3983.61,4406.4,3650.07
4462.5,4691.49,4130.49,4195.26,4408.95,4703.22,4646.61,3808.6800000000003,4439.55,4518.6,3929.55,3974.94,4399.77,3641.91
4470.15,4697.1,4139.16,4197.3,4404.36,4699.14,4641.51,3806.64,4440.06,4521.15,3937.2000000000003,3988.2000000000003,4401.3,3650.58
4468.62,4693.02,4135.08,4197.81,4402.32,4700.16,4646.61,3805.62,4439.55,4522.68,3931.59,3979.02,4402.32,3647.52
4464.54,4692.51,4131.51,4198.32,4405.89,4701.6900000000005,4650.18,3807.66,4436.49,4522.17,3928.53,3971.37,4399.77,3643.44
4475.76,4697.1,4139.16,4198.83,4403.34,4696.59,4642.02,3808.6800000000003,4438.53,4523.1900000000005,3937.2000000000003,3983.1,4402.32,3652.11
4461.4800000000005,4691.49,4127.43,4196.28,4406.91,4699.65,4649.16,3808.17,4439.04,4523.1900000000005,3925.4700000000003,3970.86,4397.22,3637.83
4467.09,4692.51,4140.6900000000005,4201.38,4404.36,4698.12,4642.02,3806.64,4438.53,4523.1900000000005,3933.63,3979.02,4400.79,3648.54
4469.64,4692.0,4137.63,4201.89,4402.83,4699.65,4643.55,3807.66,4437.51,4521.66,3934.14,3979.53,4401.81,3648.54
4467.09,4690.47,4126.41,4198.32,4403.85,4698.63,4651.2,3805.62,4437.51,4521.66,3927.0,3973.41,4399.77,3639.87
4477.8,4693.53,4141.2,4201.89,4399.77,4693.02,4641.0,3803.07,4440.57,4522.68,3938.73,3986.67,4403.85,3654.15
4460.46,4689.96,4132.02,4202.4,4404.87,4702.2,4648.14,3807.15,4439.55,4520.13,3930.57,3973.92,4398.24,3639.36
4468.62,4694.04,4133.55,4204.4400000000005,4402.83,4702.2,4646.1,3810.21,4439.04,4523.1900000000005,3933.12,3975.96,4401.3,3643.44
4476.27,4695.57,4136.61,4201.89,4401.3,4700.16,4643.55,3809.7000000000003,4440.57,4526.25,3937.71,3982.08,4403.34,3650.07
4461.4800000000005,4688.43,4131.51,4197.81,4407.42,4704.24,4650.18,3807.66,4439.55,4523.7,3931.08,3973.92,4399.26,3636.81
4468.62,4690.9800000000005,4141.2,4198.83,4403.85,4700.16,4643.55,3805.62,4439.04,4524.21,3937.2000000000003,3982.59,4404.36,3647.52
4459.95,4691.49,4126.92,4195.77,4403.85,4699.14,4648.65,3809.19,4438.53,4523.1900000000005,3929.04,3972.39,4397.22,3640.38
4466.58,4695.06,4132.02,4198.32,4403.34,4696.08,4645.08,3808.6800000000003,4439.04,4522.17,3934.14,3975.96,4396.71,3639.36
4472.7,4696.08,4138.65,4200.87,4401.81,4699.14,4642.02,3805.62,4438.02,4523.1900000000005,3938.73,3983.1,4401.81,3643.9500000000003
4455.87,4691.49,4123.35,4196.79,4402.83,4704.24,4650.6900000000005,3806.64,4436.49,4521.66,3929.55,3971.88,4397.7300000000005,3635.28
4468.11,4696.08,4134.57,4198.83,4400.79,4696.08,4641.0,3807.66,4437.51,4522.17,3941.79,3981.06,4403.34,3649.05
4461.4800000000005,4693.02,4130.49,4199.85,4406.4,4703.22,4645.59,3812.25,4437.0,4524.21,3932.1,3975.96,4398.24,3640.38
4463.01,4690.9800000000005,4129.47,4201.38,4404.36,4704.75,4649.16,3809.19,4438.02,4525.2300000000005,3928.53,3976.98,4399.26,3638.34
4476.78,4695.06,4136.61,4201.89,4400.79,4694.55,4640.49,3806.64,4439.55,4523.1900000000005,3940.26,3986.16,4406.91,3650.58
4459.95,4694.04,4125.39,4198.32,4409.97,4699.65,4648.14,3810.21,4437.51,4521.66,3928.53,3973.92,4397.7300000000005,3635.79
4468.62,4695.57,4137.63,4200.87,4406.4,4700.67,4646.1,3807.66,4439.04,4523.7,3931.59,3980.55,4400.28,3640.38
4471.68,4689.45,4135.59,4199.34,4402.83,4700.67,4648.14,3808.6800000000003,4439.04,4522.68,3930.06,3975.96,4401.3,3640.38
4470.15,4688.9400000000005,4131.51,4198.32,4404.87,4698.63,4645.59,3808.17,4437.0,4521.66,3929.55,3974.4300000000003,4400.28,3639.87
4476.78,4694.55,4138.14,4201.38,4403.34,4696.08,4636.92,3803.58,4438.02,4523.7,3937.2000000000003,3983.1,4402.32,3648.03
4459.4400000000005,4689.96,4124.88,4200.36,4405.89,4704.24,4649.16,3808.17,4438.02,4524.21,3926.4900000000002,3968.31,4393.14,3633.75
4474.2300000000005,4691.49,4136.61,4202.4,4401.3,4698.63,4645.08,3808.17,4438.02,4523.1900000000005,3934.65,3978.0,4399.26,3645.9900000000002
4478.31,4692.51,4137.12,4198.83,4404.36,4697.1,4643.55,3804.6,4436.49,4523.1900000000005,3933.12,3980.55,4403.34,3647.01
4463.01,4693.53,4127.43,4198.83,4409.97,4701.6900000000005,4650.6900000000005,3805.62,4437.51,4523.1900000000005,3925.4700000000003,3973.92,4396.2,3634.26
4477.29,4697.1,4136.61,4200.87,4404.87,4698.12,4643.04,3807.15,4441.08,4522.17,3937.2000000000003,3983.1,4398.75,3646.5
4466.07,4689.45,4126.41,4195.26,4410.99,4702.2,4648.14,3807.15,4438.53,4522.17,3930.06,3969.84,4395.6900000000005,3638.85
4465.05,4688.9400000000005,4134.06,4199.85,4408.95,4699.14,4645.08,3806.13,4438.02,4524.72,3934.14,3976.4700000000003,4399.77,3643.44
4474.2300000000005,4692.0,4137.63,4201.38,4402.32,4697.1,4642.53,3805.62,4440.57,4524.72,3935.16,3984.12,4402.32,3645.9900000000002
4467.6,4692.0,4127.43,4197.81,4405.38,4701.6900000000005,4648.14,3807.15,4439.04,4522.68,3927.51,3974.4300000000003,4396.2,3633.75
4475.25,4694.55,4140.6900000000005,4199.34,4403.85,4697.1,4639.9800000000005,3807.15,4438.53,4521.66,3938.73,3981.57,4401.81,3646.5
4465.56,4692.0,4131.0,4198.32,4406.91,4700.16,4648.65,3808.6800000000003,4438.53,4521.15,3929.04,3971.37,4399.77,3639.87
4470.66,4694.55,4131.0,4199.85,4405.38,4698.12,4647.63,3808.6800000000003,4438.53,4526.25,3931.08,3976.4700000000003,4399.77,3641.91
4474.74,4693.53,4137.12,4197.3,4400.79,4696.59,4639.47,3809.19,4438.53,4527.27,3938.2200000000003,3983.1,4399.77,3648.03
4459.95,4686.9,4126.41,4194.24,4403.34,4700.16,4649.16,3808.6800000000003,4439.04,4521.15,3926.4900000000002,3969.33,4396.2,3633.75
4478.31,4692.0,4137.12,4199.85,4403.34,4692.0,4643.55,3804.09,4440.57,4522.68,3935.67,3983.61,4405.38,3647.52
4473.21,4692.0,4129.47,4198.83,4407.42,4698.12,4647.63,3804.6,4440.06,4523.1900000000005,3930.06,3980.04,4400.79,3641.91
4468.11,4692.51,4131.0,4197.3,4405.89,4703.22,4650.18,3806.13,4439.55,4520.13,3928.53,3974.4300000000003,4397.7300000000005,3634.26
4479.33,4693.53,4141.2,4198.32,4399.77,4698.12,4644.06,3807.15,4440.06,4523.1900000000005,3937.71,3983.61,4403.34,3643.44
4467.6,4689.45,4127.43,4198.32,4405.38,4701.6900000000005,4650.6900000000005,3809.7000000000003,4438.53,4524.21,3928.02,3973.41,4398.75,3633.2400000000002
4478.31,4696.59,4138.14,4202.4,4404.87,4697.61,4642.53,3805.62,4440.57,4522.17,3938.2200000000003,3983.1,4403.34,3644.9700000000003
4473.21,4696.08,4135.59,4199.85,4407.42,4699.14,4646.1,3807.15,4440.06,4523.1900000000005,3936.1800000000003,3980.04,4402.32,3642.42
4466.07,4691.49,4128.45,4197.81,4409.46,4701.18,4649.67,3810.7200000000003,4438.02,4523.1900000000005,3931.59,3972.9,4398.24,3635.28
4478.82,4694.04,4138.14,4201.89,4404.36,4698.63,4639.9800000000005,3808.17,4438.53,4520.64,3939.2400000000002,3983.1,4401.81,3648.03
4461.99,4691.49,4128.96,4198.83,4409.46,4702.2,4648.14,3807.66,4437.0,4519.62,3926.4900000000002,3971.88,4396.2,3634.77
4469.64,4694.04,4136.1,4197.81,4406.91,4696.59,4644.57,3805.62,4439.04,4523.7,3934.65,3978.0,4401.3,3641.4
4474.74,4694.04,4135.08,4198.83,4403.85,4698.12,4643.04,3807.15,4438.02,4523.7,3935.67,3979.02,4401.81,3643.9500000000003
4468.62,4693.02,4128.96,4201.38,4405.89,4704.75,4646.61,3809.7000000000003,4434.96,4521.66,3927.0,3973.41,4398.75,3634.26
4481.37,4694.55,4139.67,4201.89,4402.83,4700.67,4637.9400000000005,3809.19,4441.08,4522.68,3936.1800000000003,3985.14,4405.38,3645.9900000000002
4464.54,4688.9400000000005,4125.39,4195.77,4406.4,4703.22,4648.14,3810.21,4441.08,4523.7,3927.51,3973.41,4399.26,3634.77
4467.09,4693.02,4131.0,4197.81,4404.87,4700.67,4648.14,3808.17,4435.47,4522.68,3932.61,3978.0,4400.79,3638.85
4477.29,4695.06,4137.12,4201.38,4403.34,4697.1,4643.04,3809.7000000000003,4435.9800000000005,4522.17,3935.67,3981.57,4403.85,3644.46
4464.54,4690.9800000000005,4127.43,4201.89,4406.91,4700.67,4648.65,3810.7200000000003,4439.55,4522.17,3926.4900000000002,3970.35,4397.7300000000005,3633.75
4474.2300000000005,4694.04,4140.18,4201.89,4402.83,4696.59,4641.51,3805.62,4439.55,4522.68,3936.69,3980.55,4401.81,3645.9900000000002
4467.6,4689.45,4132.02,4196.79,4407.42,4698.12,4646.1,3807.15,4437.51,4522.68,3929.04,3974.4300000000003,4396.71,3637.32
4472.7,4692.51,4133.04,4200.36,4407.42,4696.59,4645.59,3810.21,4440.57,4523.1900000000005,3930.57,3976.98,4397.22,3635.79
4482.39,4698.12,4138.65,4201.38,4401.81,4695.06,4641.0,3809.19,4442.61,4522.17,3938.2200000000003,3982.08,4402.32,3641.91
4464.03,4688.43,4125.39,4197.81,4404.87,4701.18,4648.65,3809.7000000000003,4439.04,4521.15,3928.53,3970.35,4396.2,3631.71
4474.74,4687.41,4136.1,4200.87,4402.83,4697.61,4641.51,3807.66,4439.04,4522.17,3935.67,3982.59,4401.81,3644.9700000000003
4473.21,4690.9800000000005,4131.51,4197.81,4405.38,4700.67,4647.12,3807.15,4439.55,4522.17,3929.55,3976.98,4400.28,3638.85
4467.6,4693.53,4131.51,4198.32,4407.42,4699.65,4648.14,3808.17,4439.55,4523.1900000000005,3931.08,3974.4300000000003,4398.24,3634.26
4476.27,4693.02,4138.65,4199.34,4402.83,4695.57,4639.9800000000005,3807.66,4440.57,4524.72,3940.26,3983.1,4402.32,3641.91
4463.01,4687.92,4124.37,4195.77,4406.91,4701.6900000000005,4650.6900000000005,3810.21,4439.55,4523.7,3926.4900000000002,3970.35,4397.7300000000005,3630.69
4474.74,4693.53,4135.59,4198.83,4405.38,4698.12,4645.08,3808.17,4439.55,4524.21,3934.14,3978.51,4404.87,3644.46
4476.78,4693.53,4133.04,4196.28,4404.36,4698.63,4644.57,3806.64,4439.04,4523.1900000000005,3934.14,3976.4700000000003,4405.38,3641.91
4470.66,4691.49,4128.96,4196.28,4404.36,4699.65,4648.14,3808.6800000000003,4438.02,4524.21,3929.55,3970.86,4399.26,3634.77
4477.8,4693.02,4138.65,4200.87,4401.3,4696.59,4642.53,3809.19,4439.55,4527.27,3936.1800000000003,3981.57,4401.81,3647.01
4464.03,4690.47,4126.41,4197.81,4407.42,4704.24,4652.22,3808.17,4439.55,4523.1900000000005,3925.4700000000003,3971.88,4397.7300000000005,3630.69
4475.25,4694.55,4136.61,4199.85,4403.85,4699.65,4645.59,3805.62,4440.06,4521.66,3935.16,3979.02,4402.83,3635.79
4478.31,4693.53,4138.14,4201.38,4402.32,4697.1,4644.57,3807.15,4440.57,4524.72,3936.69,3978.51,4402.32,3639.87
4468.62,4692.51,4129.9800000000005,4201.38,4406.91,4703.22,4654.26,3806.64,4439.04,4526.76,3927.0,3970.86,4394.67,3630.18
4482.39,4697.61,4141.71,4201.38,4403.85,4700.67,4645.59,3805.11,4439.55,4525.2300000000005,3937.71,3986.16,4400.28,3643.44
4469.13,4690.9800000000005,4131.0,4197.3,4406.91,4702.71,4650.18,3810.21,4440.57,4520.64,3930.57,3978.0,4398.24,3634.77
4474.2300000000005,4690.9800000000005,4136.61,4197.81,4405.89,4697.61,4646.61,3808.6800000000003,4441.08,4521.66,3934.14,3979.02,4399.77,3638.34
4479.33,4694.04,4140.18,4197.81,4404.36,4698.63,4642.02,3802.56,4439.04,4523.1900000000005,3937.2000000000003,3980.04,4400.79,3643.9500000000003
4463.52,4690.47,4127.9400000000005,4198.83,4406.91,4703.7300000000005,4651.2,3803.07,4436.49,4520.13,3927.51,3971.88,4397.22,3632.73
4477.8,4693.53,4138.65,4204.4400000000005,4402.32,4697.1,4644.57,3808.17,4438.53,4519.62,3938.2200000000003,3984.63,4403.85,3644.46
4472.1900000000005,4690.9800000000005,4131.0,4200.87,4406.4,4701.6900000000005,4647.63,3811.7400000000002,4438.02,4521.66,3931.59,3974.94,4399.26,3636.81
4472.1900000000005,4692.0,4131.51,4198.83,4407.42,4703.22,4645.59,3807.66,4436.49,4524.21,3930.57,3977.4900000000002,4399.26,3636.3
4479.33,4692.51,4139.16,4198.32,4403.34,4699.14,4640.49,3806.64,4438.02,4523.7,3933.12,3984.63,4401.3,3642.93
4464.03,4689.96,4129.47,4195.26,4406.91,4702.71,4649.16,3808.17,4439.04,4522.68,3924.96,3973.41,4397.22,3629.67
4478.31,4695.06,4139.67,4199.85,4404.36,4696.59,4644.06,3804.6,4442.1,4523.7,3938.2200000000003,3984.63,4405.38,3643.9500000000003
4472.7,4690.47,4133.55,4199.85,4406.91,4701.18,4647.63,3808.17,4440.57,4523.1900000000005,3931.59,3974.94,4399.26,3640.38
4463.52,4688.43,4130.49,4197.81,4405.89,4705.26,4649.16,3808.17,4439.04,4522.17,3925.98,3968.82,4395.6900000000005,3633.2400000000002
4477.29,4692.0,4138.65,4197.3,4400.79,4697.1,4641.51,3803.58,4439.55,4522.68,3936.1800000000003,3981.57,4404.87,3645.9900000000002
4467.09,4687.92,4125.39,4196.79,4405.89,4700.67,4647.63,3808.6800000000003,4437.0,4523.7,3926.4900000000002,3971.88,4397.7300000000005,3634.26
4477.29,4690.47,4136.61,4201.89,4402.83,4700.67,4643.04,3811.7400000000002,4439.04,4524.21,3934.14,3980.55,4398.24,3638.34
4476.27,4691.49,4134.06,4197.81,4405.38,4701.18,4646.1,3810.7200000000003,4440.57,4523.7,3934.14,3980.04,4400.28,3637.83
4468.62,4690.47,4127.43,4196.79,4407.93,4700.67,4648.65,3809.19,4439.04,4523.1900000000005,3929.55,3973.41,4398.75,3634.77
4479.84,4694.04,4140.6900000000005,4203.42,4400.79,4696.59,4638.96,3807.15,4440.57,4522.17,3937.2000000000003,3983.61,4403.34,3645.9900000000002
4467.6,4691.49,4131.51,4201.38,4404.87,4701.18,4647.12,3807.15,4439.04,4523.7,3926.4900000000002,3973.92,4396.71,3632.2200000000003
4475.76,4692.0,4136.1,4199.85,4405.38,4698.12,4643.55,3805.11,4437.51,4524.21,3935.16,3979.02,4401.3,3638.34
4465.56,4692.0,4127.43,4201.38,4407.42,4702.71,4649.16,3811.23,4441.59,4520.13,3925.98,3969.84,4398.24,3632.2200000000003
4481.88,4697.1,4142.22,4204.4400000000005,4401.81,4697.1,4639.9800000000005,3806.64,4440.57,4522.17,3937.71,3985.65,4403.34,3644.46
4470.66,4689.45,4130.49,4200.87,4403.34,4701.18,4645.59,3805.11,4438.02,4520.64,3929.55,3979.02,4401.81,3631.71
4471.68,4692.0,4134.06,4201.89,4404.87,4697.1,4645.59,3804.09,4439.55,4523.7,3932.61,3979.53,4403.34,3637.32
4480.86,4695.06,4137.12,4200.36,4406.91,4696.59,4644.06,3804.6,4439.55,4525.74,3934.65,3981.57,4403.85,3644.46
4469.13,4689.45,4126.41,4199.34,4410.4800000000005,4705.77,4651.2,3806.64,4435.9800000000005,4523.7,3924.96,3973.41,4398.75,3629.16
4478.31,4692.51,4140.18,4201.89,4404.87,4699.14,4642.02,3806.13,4437.51,4525.74,3937.2000000000003,3985.65,4405.89,3642.93
4470.15,4691.49,4132.53,4197.3,4404.87,4701.6900000000005,4647.12,3808.17,4439.04,4523.1900000000005,3931.59,3975.96,4402.83,3636.81
4469.64,4692.51,4132.02,4200.36,4404.87,4703.7300000000005,4648.14,3807.66,4439.04,4519.62,3929.55,3975.4500000000003,4400.79,3630.69
4479.84,4695.06,4139.67,4203.93,4403.34,4699.14,4642.53,3808.17,4440.06,4521.66,3935.67,3985.14,4401.81,3641.4
4468.62,4690.9800000000005,4128.45,4200.87,4407.42,4702.71,4652.22,3811.23,4439.04,4523.7,3928.53,3973.92,4395.18,3632.2200000000003
4477.29,4694.04,4135.59,4200.36,4402.83,4698.63,4644.57,3809.19,4442.1,4524.72,3936.1800000000003,3980.55,4402.32,3639.36
4468.11,4693.02,4128.96,4197.3,4405.89,4701.6900000000005,4646.61,3808.17,4439.55,4523.1900000000005,3929.04,3975.96,4399.77,3632.2200000000003
4466.58,4693.53,4130.49,4199.34,4409.46,4701.6900000000005,4648.65,3806.64,4434.96,4521.66,3929.55,3975.96,4397.7300000000005,3630.69
4479.84,4694.04,4141.71,4199.85,4405.38,4697.61,4640.49,3808.17,4438.53,4522.68,3941.28,3982.08,4404.36,3644.46
4461.99,4689.96,4127.43,4196.79,4405.38,4703.7300000000005,4648.65,3810.21,4438.53,4522.68,3928.53,3967.29,4397.7300000000005,3629.16
4473.21,4694.55,4135.59,4200.87,4400.28,4699.65,4641.51,3805.62,4438.02,4521.15,3936.1800000000003,3981.57,4401.3,3636.3
4477.29,4692.0,4134.06,4198.83,4405.89,4698.12,4641.0,3806.13,4440.06,4523.1900000000005,3935.16,3980.55,4400.28,3637.32
4468.62,4689.45,4128.96,4197.81,4410.4800000000005,4703.22,4647.12,3810.21,4441.08,4523.1900000000005,3928.53,3970.35,4398.24,3631.2000000000003
4482.9,4695.57,4138.65,4201.38,4402.83,4699.65,4642.02,3808.6800000000003,4440.57,4520.64,3938.2200000000003,3983.1,4404.87,3644.46
4468.11,4691.49,4126.41,4197.81,4404.36,4700.16,4650.6900000000005,3808.6800000000003,4437.51,4521.15,3927.51,3974.4300000000003,4398.24,3631.71
4469.13,4691.49,4135.08,4198.32,4404.36,4696.59,4645.59,3806.13,4439.04,4523.7,3932.61,3980.04,4401.3,3636.3
4475.25,4692.51,4135.59,4198.83,4406.4,4699.14,4642.02,3807.66,4440.57,4522.17,3933.63,3980.04,4402.32,3641.4
4468.11,4689.45,4126.41,4198.83,4407.42,4704.24,4650.6900000000005,3809.7000000000003,4439.55,4520.64,3928.02,3969.33,4396.71,3633.2400000000002
4482.9,4695.06,4141.2,4200.87,4399.26,4697.61,4643.04,3806.13,4440.57,4523.7,3939.75,3981.57,4402.32,3643.9500000000003
4474.74,4694.04,4131.51,4198.83,4405.38,4700.67,4644.57,3806.64,4439.55,4523.1900000000005,3928.02,3972.9,4397.7300000000005,3631.71
4475.76,4692.51,4134.06,4201.89,4404.87,4700.16,4644.06,3806.64,4439.55,4521.66,3929.55,3976.98,4399.77,3636.3
4478.31,4690.47,4138.14,4199.34,4399.26,4698.63,4645.59,3806.64,4440.06,4523.1900000000005,3935.67,3982.08,4402.32,3644.9700000000003
4465.56,4689.45,4128.45,4196.28,4406.91,4702.2,4652.7300000000005,3807.15,4438.53,4523.7,3928.02,3973.41,4395.18,3631.2000000000003
4481.88,4694.04,4140.18,4200.36,4404.36,4697.61,4641.51,3804.6,4438.53,4523.1900000000005,3938.2200000000003,3984.12,4402.83,3642.42
4471.68,4690.47,4130.49,4198.32,4402.83,4700.67,4646.61,3806.64,4437.51,4522.17,3930.06,3972.9,4400.79,3634.77
4467.6,4693.02,4129.47,4200.36,4405.38,4698.63,4649.16,3808.17,4439.55,4524.72,3929.04,3972.39,4396.71,3634.77
4481.37,4693.53,4139.16,4200.36,4403.34,4695.57,4642.53,3806.64,4440.57,4524.72,3937.71,3981.57,4401.3,3645.48
4470.15,4686.39,4128.45,4196.79,4404.87,4703.22,4651.71,3804.09,4437.51,4519.11,3928.53,3971.88,4397.22,3632.73
4477.8,4693.53,4137.63,4198.32,4401.81,4698.63,4645.08,3803.07,4437.0,4518.6,3936.69,3982.59,4402.83,3641.91
4472.1900000000005,4694.04,4133.55,4196.28,4404.87,4700.16,4645.59,3807.15,4439.04,4520.13,3932.1,3979.02,4403.85,3637.32
4467.6,4688.9400000000005,4131.51,4197.3,4407.42,4702.71,4650.6900000000005,3806.64,4440.57,4519.62,3930.06,3973.41,4402.83,3632.2200000000003
4478.31,4690.9800000000005,4138.65,4198.83,4402.32,4695.57,4644.57,3803.58,4440.57,4520.64,3938.2200000000003,3983.61,4402.32,3644.9700000000003
4464.03,4690.47,4127.43,4196.79,4406.4,4700.16,4648.65,3805.62,4438.53,4522.17,3925.4700000000003,3974.4300000000003,4394.67,3631.2000000000003
4475.25,4693.53,4138.65,4200.36,4405.38,4699.14,4644.06,3808.17,4439.04,4524.72,3932.61,3980.04,4403.34,3636.81
4477.8,4693.02,4135.59,4197.3,4404.36,4698.12,4646.61,3808.17,4440.57,4522.68,3934.65,3979.02,4403.34,3641.91
4468.62,4691.49,4127.9400000000005,4196.28,4405.89,4698.12,4649.16,3805.11,4440.06,4521.66,3928.53,3973.92,4397.22,3634.77
4478.82,4693.53,4137.12,4198.83,4404.87,4695.57,4641.0,3805.11,4440.06,4523.1900000000005,3935.67,3981.06,4402.83,3642.42
4464.54,4688.9400000000005,4124.88,4196.79,4408.95,4703.7300000000005,4650.6900000000005,3809.7000000000003,4438.02,4521.15,3925.4700000000003,3967.8,4396.71,3631.2000000000003
4469.64,4690.47,4133.04,4201.89,4403.85,4700.67,4646.1,3806.13,4439.04,4521.66,3931.08,3978.0,4398.24,3637.83
4478.31,4691.49,4136.61,4200.87,4402.83,4698.63,4644.06,3806.13,4442.1,4523.7,3934.14,3982.08,4401.81,3642.42
4470.15,4690.9800000000005,4126.41,4197.3,4407.93,4702.2,4651.2,3808.6800000000003,4438.02,4522.68,3928.02,3970.35,4396.71,3631.2000000000003
4476.78,4695.06,4136.61,4201.89,4403.34,4697.61,4643.04,3806.13,4437.0,4522.68,3936.69,3982.59,4400.79,3643.44
4465.05,4693.02,4131.51,4198.32,4406.91,4703.22,4648.14,3808.17,4439.55,4521.66,3930.06,3978.51,4399.26,3637.83
4474.74,4696.08,4136.1,4197.3,4404.87,4701.6900000000005,4645.08,3808.6800000000003,4439.55,4521.15,3936.69,3982.59,4400.79,3639.87
4484.9400000000005,4695.06,4135.59,4200.87,4402.32,4696.08,4641.0,3810.21,4438.53,4521.66,3937.71,3983.1,4400.79,3642.42
4466.58,4691.49,4125.39,4200.87,4408.4400000000005,4701.18,4650.18,3810.21,4438.02,4523.1900000000005,3923.94,3970.35,4396.2,3628.65
4478.31,4696.59,4140.6900000000005,4200.36,4404.87,4697.61,4642.53,3805.11,4441.08,4522.68,3935.16,3983.1,4402.32,3639.87
4473.72,4692.0,4131.51,4197.3,4405.38,4700.67,4645.08,3806.64,4439.55,4520.13,3931.08,3976.98,4399.77,3633.2400000000002
4470.15,4692.0,4129.47,4202.91,4406.91,4703.7300000000005,4647.63,3805.62,4439.55,4519.62,3929.55,3974.4300000000003,4400.28,3631.71
4481.88,4698.63,4139.67,4203.93,4403.85,4700.67,4642.02,3803.58,4441.08,4523.1900000000005,3936.1800000000003,3980.55,4401.81,3641.4
4467.09,4694.55,4129.47,4199.34,4405.38,4702.71,4647.12,3809.7000000000003,4436.49,4523.7,3928.02,3970.35,4394.16,3629.67
4474.74,4694.55,4137.63,4201.89,4402.83,4696.59,4642.53,3810.21,4433.43,4522.68,3936.1800000000003,3981.57,4402.32,3638.85
4475.25,4692.0,4132.53,4200.87,4404.36,4697.61,4646.61,3807.15,4435.9800000000005,4523.1900000000005,3930.57,3976.4700000000003,4402.83,3635.28
4471.68,4690.9800000000005,4129.47,4200.36,4404.87,4701.18,4647.12,3805.62,4440.06,4523.1900000000005,3928.53,3971.88,4397.7300000000005,3634.26
4480.35,4693.02,4141.71,4201.38,4402.83,4698.12,4638.45,3805.11,4441.59,4521.66,3938.73,3984.63,4403.34,3645.9900000000002
4466.07,4688.43,4131.51,4198.32,4407.42,4699.14,4649.16,3807.15,4440.57,4523.1900000000005,3927.51,3973.41,4399.26,3628.65
4475.25,4692.51,4138.14,4199.34,4402.83,4696.08,4647.12,3806.64,4441.08,4525.2300000000005,3935.67,3976.98,4400.28,3636.81
4476.78,4692.51,4133.04,4197.81,4403.34,4701.18,4646.61,3804.6,4438.53,4522.68,3935.67,3974.94,4396.71,3638.34
4470.66,4691.49,4126.92,4197.3,4407.42,4704.24,4649.16,3805.62,4437.51,4522.17,3928.53,3974.4300000000003,4395.18,3628.65
4480.86,4697.1,4140.6900000000005,4200.87,4401.81,4699.14,4641.0,3807.15,4440.06,4523.1900000000005,3938.2200000000003,3988.71,4405.89,3642.93
4465.05,4692.51,4126.41,4199.85,4407.42,4703.22,4651.71,3809.19,4438.02,4520.13,3927.51,3972.39,4399.77,3632.2200000000003
4472.1900000000005,4693.02,4131.0,4201.89,4407.42,4698.12,4648.14,3807.15,4437.51,4520.64,3932.1,3978.0,4399.77,3635.79
4477.8,4694.04,4138.14,4199.85,4403.34,4697.61,4642.02,3805.11,4438.02,4520.64,3935.16,3984.63,4402.32,3640.89
4467.09,4690.47,4130.49,4198.32,4407.42,4703.7300000000005,4649.67,3807.66,4438.53,4520.64,3926.4900000000002,3971.37,4399.26,3630.69
4479.84,4691.49,4138.14,4204.4400000000005,4404.36,4699.14,4643.04,3806.13,4441.59,4523.1900000000005,3938.2200000000003,3983.1,4403.34,3640.38
4467.09,4690.47,4126.41,4202.91,4403.85,4702.71,4647.63,3805.11,4440.57,4520.64,3930.06,3977.4900000000002,4398.24,3626.61
4470.66,4696.08,4133.04,4202.4,4403.34,4700.67,4645.59,3806.13,4439.55,4521.15,3930.57,3979.02,4400.28,3630.69
4482.9,4697.1,4142.7300000000005,4202.91,4405.89,4697.61,4642.02,3806.13,4441.08,4524.72,3936.1800000000003,3984.63,4402.83,3645.9900000000002
4468.62,4692.51,4127.43,4200.36,4409.46,4703.7300000000005,4652.22,3806.13,4440.06,4522.68,3925.98,3975.4500000000003,4395.18,3630.69
4476.78,4696.08,4135.59,4200.87,4404.36,4699.65,4645.59,3806.64,4440.06,4521.66,3934.14,3984.63,4401.81,3634.77
4469.64,4693.02,4132.53,4197.81,4408.95,4701.6900000000005,4645.59,3807.66,4439.55,4523.7,3930.57,3975.4500000000003,4400.79,3631.71
4468.62,4693.02,4133.55,4199.34,4407.93,4700.67,4645.08,3805.11,4439.04,4524.72,3933.12,3973.92,4399.26,3633.75
4480.35,4695.57,4140.18,4198.83,4402.32,4697.61,4639.9800000000005,3804.6,4439.04,4523.1900000000005,3939.2400000000002,3982.08,4403.85,3643.44
4468.11,4689.45,4128.45,4195.77,4407.93,4704.24,4648.14,3807.15,4438.53,4519.62,3925.4700000000003,3971.37,4397.22,3628.14
4480.86,4693.02,4137.12,4200.87,4404.36,4697.61,4641.51,3806.13,4440.06,4522.17,3934.14,3982.59,4400.28,3637.32
4476.27,4695.06,4131.51,4199.85,4403.34,4697.61,4644.57,3808.6800000000003,4439.04,4523.7,3933.63,3980.04,4402.32,3635.28
4467.09,4694.04,4128.96,4198.83,4405.89,4701.18,4646.1,3807.15,4438.02,4522.17,3932.61,3974.94,4399.26,3630.69
4479.33,4692.0,4139.16,4199.34,4401.81,4695.06,4637.9400000000005,3803.07,4439.55,4523.1900000000005,3940.77,3985.14,4400.79,3644.9700000000003
4464.54,4688.43,4124.88,4194.75,4404.36,4696.59,4649.67,3809.19,4438.02,4523.7,3927.0,3974.4300000000003,4396.71,3631.2000000000003
4473.72,4695.57,4134.57,4196.28,4404.36,4694.04,4644.57,3808.6800000000003,4439.04,4521.66,3933.63,3982.59,4402.83,3635.28
4479.33,4692.51,4136.1,4196.79,4405.89,4698.12,4641.51,3806.64,4440.06,4522.68,3933.63,3981.06,4400.28,3638.85
4467.6,4686.39,4126.92,4196.79,4406.91,4703.22,4647.63,3808.6800000000003,4438.02,4523.1900000000005,3924.4500000000003,3969.33,4396.2,3630.69
4477.8,4693.02,4137.12,4199.85,4400.79,4696.59,4642.02,3808.17,4438.53,4520.64,3935.16,3980.04,4404.87,3636.81
4469.13,4692.0,4126.92,4197.81,4405.38,4698.63,4649.16,3809.19,4438.02,4518.09,3927.51,3972.9,4398.24,3628.14
4477.8,4692.0,4132.53,4201.38,4402.83,4698.63,4645.59,3807.66,4439.55,4520.13,3933.12,3978.0,4399.26,3641.4
4483.41,4693.53,4135.08,4202.91,4401.81,4700.16,4641.51,3807.15,4440.57,4522.68,3935.67,3981.06,4404.36,3642.93
4468.62,4693.02,4125.39,4200.87,4409.97,4704.75,4650.18,3809.7000000000003,4438.02,4522.17,3927.51,3973.92,4397.7300000000005,3626.61
4480.35,4695.57,4138.14,4200.87,4404.87,4698.12,4644.57,3806.64,4438.53,4521.66,3939.2400000000002,3987.1800000000003,4402.83,3643.44
4473.72,4690.9800000000005,4132.53,4196.79,4404.87,4698.12,4648.14,3806.64,4439.04,4521.15,3932.61,3976.4700000000003,4401.3,3637.32
4474.74,4693.02,4135.08,4199.34,4405.38,4698.12,4647.63,3808.6800000000003,4439.55,4523.1900000000005,3932.1,3976.98,4400.79,3634.26
4482.9,4694.55,4140.6900000000005,4201.38,4402.83,4699.14,4644.06,3808.6800000000003,4439.55,4520.64,3936.69,3985.14,4402.32,3639.87
4471.17,4690.47,4130.49,4200.36,4405.38,4702.2,4650.18,3806.13,4437.51,4517.58,3928.02,3972.9,4398.75,3627.63
4480.86,4695.06,4141.71,4202.4,4402.32,4696.08,4640.49,3803.07,4437.0,4524.21,3936.69,3981.57,4404.36,3638.34
4473.21,4692.51,4132.02,4198.32,4405.38,4701.18,4646.61,3805.62,4435.9800000000005,4524.21,3931.08,3979.02,4398.75,3633.75
4471.68,4690.9800000000005,4128.45,4198.83,4404.87,4701.18,4649.67,3806.64,4438.53,4518.6,3930.06,3977.4900000000002,4397.22,3632.73
4481.88,4693.53,4137.12,4200.87,4400.79,4695.06,4640.49,3809.19,4441.59,4520.64,3939.75,3981.57,4401.81,3643.44
4465.56,4690.9800000000005,4124.88,4198.32,4406.91,4702.2,4648.65,3812.25,4438.53,4522.68,3930.06,3971.88,4396.71,3629.16
4474.2300000000005,4694.55,4134.57,4201.89,4402.83,4697.61,4642.53,3806.64,4437.51,4524.72,3934.65,3984.12,4404.36,3639.36
4472.1900000000005,4693.53,4134.06,4199.85,4402.32,4698.63,4644.57,3806.13,4438.02,4524.21,3929.55,3978.51,4402.32,3636.81
4465.56,4690.9800000000005,4130.49,4198.83,4406.4,4704.24,4649.67,3808.17,4439.55,4523.1900000000005,3928.02,3974.4300000000003,4397.7300000000005,3627.12
4481.37,4693.02,4136.61,4202.4,4404.36,4699.14,4642.53,3808.17,4440.06,4522.17,3940.26,3988.2000000000003,4403.34,3639.87
4470.15,4690.9800000000005,4124.37,4199.85,4404.87,4700.16,4648.14,3809.7000000000003,4436.49,4521.15,3928.53,3973.92,4398.24,3630.18
4473.21,4695.57,4135.08,4201.38,4401.3,4697.1,4642.53,3807.15,4438.53,4522.68,3933.12,3977.4900000000002,4400.79,3636.81
4472.7,4695.57,4134.06,4200.87,4403.85,4697.61,4642.02,3807.15,4440.57,4523.1900000000005,3932.61,3978.51,4400.79,3637.83
4466.58,4692.51,4126.41,4199.85,4406.4,4701.18,4647.12,3810.21,4437.51,4521.66,3925.98,3970.35,4395.6900000000005,3628.14
4481.37,4694.55,4138.14,4201.38,4400.28,4697.1,4642.02,3809.19,4438.53,4521.66,3939.2400000000002,3981.06,4401.3,3641.4
4466.58,4691.49,4125.39,4198.83,4404.87,4701.6900000000005,4652.7300000000005,3809.19,4440.06,4522.17,3931.08,3973.41,4398.75,3630.69
4470.15,4694.04,4131.51,4200.36,4403.85,4699.14,4650.6900000000005,3807.15,4439.04,4522.17,3930.57,3979.53,4399.26,3633.2400000000002
4475.25,4690.9800000000005,4136.61,4198.32,4402.83,4696.59,4645.59,3809.19,4438.53,4520.64,3931.59,3982.08,4400.79,3636.81
4464.03,4686.39,4128.45,4197.3,4407.93,4701.18,4651.2,3808.6800000000003,4436.49,4522.68,3929.55,3972.9,4400.28,3626.61
4481.37,4692.51,4140.6900000000005,4200.36,4403.85,4698.63,4641.51,3803.07,4437.51,4524.72,3941.79,3983.61,4405.89,3640.89
4470.15,4690.47,4128.96,4198.83,4405.89,4701.6900000000005,4645.59,3807.66,4438.02,4523.1900000000005,3928.02,3972.39,4396.2,3631.71
4469.64,4691.49,4131.51,4201.89,4405.38,4697.61,4647.12,3809.19,4439.55,4521.66,3930.06,3973.92,4397.22,3630.69
4483.92,4693.02,4137.12,4199.34,4403.85,4694.04,4641.51,3806.13,4440.57,4521.15,3938.73,3983.61,4402.32,3638.85
4469.13,4689.96,4122.84,4196.28,4408.95,4702.2,4648.65,3808.6800000000003,4436.49,4519.62,3927.51,3972.9,4394.16,3626.61
4478.31,4694.55,4136.61,4202.4,4404.36,4698.63,4643.55,3806.13,4437.0,4521.66,3936.69,3984.12,4400.79,3638.34
4474.2300000000005,4692.51,4134.06,4199.85,4405.38,4699.65,4647.63,3806.13,4440.57,4524.21,3931.08,3978.51,4401.81,3634.77
4470.66,4691.49,4133.04,4200.36,4405.38,4701.6900000000005,4647.63,3807.66,4440.06,4524.21,3928.53,3973.92,4399.26,3634.77
4482.39,4694.55,4140.6900000000005,4201.89,4402.32,4699.65,4641.0,3806.13,4439.55,4522.68,3937.71,3981.06,4404.36,3645.48
4467.09,4689.96,4125.39,4196.79,4407.93,4703.22,4651.71,3805.11,4440.06,4522.68,3927.0,3970.35,4397.22,3628.65
4475.76,4693.02,4134.57,4199.85,4402.32,4697.1,4645.08,3805.62,4440.57,4524.21,3935.67,3980.04,4398.75,3635.28
4480.35,4693.53,4136.61,4203.93,4400.79,4699.14,4644.06,3808.17,4440.06,4520.64,3933.63,3976.98,4397.7300000000005,3635.79
4479.33,4695.57,4136.61,4199.34,4402.32,4695.57,4645.59,3803.07,4442.61,4525.74,3938.2200000000003,3985.14,4404.36,3642.42
4463.52,4689.45,4124.88,4194.75,4407.42,4702.2,4652.7300000000005,3806.13,4439.55,4524.72,3927.0,3973.41,4399.26,3630.69
4475.76,4691.49,4137.12,4199.85,4405.89,4701.18,4644.06,3806.64,4440.57,4523.1900000000005,3933.63,3981.57,4400.79,3640.38
4475.76,4690.47,4136.61,4197.3,4404.87,4699.65,4645.08,3806.64,4440.06,4523.1900000000005,3933.12,3982.08,4400.28,3640.89
4458.42,4686.39,4124.37,4195.77,4409.97,4700.16,4655.79,3805.62,4438.53,4523.1900000000005,3924.96,3969.84,4396.2,3626.1
4479.84,4692.0,4137.12,4201.38,4403.85,4694.55,4642.53,3806.13,4442.1,4524.21,3938.2200000000003,3982.08,4403.34,3645.48
4476.27,4692.0,4131.51,4199.34,4402.32,4700.67,4642.53,3809.19,4441.08,4521.66,3932.1,3975.96,4398.24,3640.38
4475.25,4694.04,4135.59,4199.34,4403.85,4699.14,4645.08,3806.13,4440.06,4519.11,3937.71,3979.02,4400.79,3634.77
4479.84,4694.55,4136.1,4197.3,4407.42,4696.08,4645.08,3806.13,4442.61,4520.13,3939.2400000000002,3981.57,4403.85,3638.85
4467.09,4690.9800000000005,4124.88,4195.77,4407.93,4700.16,4650.18,3810.7200000000003,4439.55,4521.15,3927.0,3974.4300000000003,4397.7300000000005,3630.18
4475.25,4694.04,4138.65,4198.83,4399.77,4695.06,4642.53,3808.17,4436.49,4522.17,3935.67,3985.65,4402.32,3638.85
4466.58,4690.9800000000005,4132.02,4193.7300000000005,4408.4400000000005,4700.67,4647.63,3808.17,4438.02,4523.7,3928.02,3973.41,4398.75,3630.69
4472.7,4692.51,4135.59,4196.28,4412.52,4701.6900000000005,4644.06,3807.15,4443.12,4524.72,3930.06,3975.4500000000003,4398.75,3633.2400000000002
4484.9400000000005,4695.57,4142.22,4200.87,4401.81,4697.1,4638.96,3803.58,4444.14,4522.17,3936.69,3985.65,4403.34,3642.93
4471.68,4692.0,4128.96,4199.85,4401.3,4703.22,4648.65,3804.6,4439.04,4520.13,3927.0,3971.88,4396.71,3630.18
4480.86,4694.04,4138.14,4202.4,4402.32,4700.16,4640.49,3806.13,4439.04,4523.1900000000005,3939.2400000000002,3981.57,4400.79,3639.87
4472.1900000000005,4693.53,4131.51,4199.34,4406.4,4698.12,4645.08,3808.6800000000003,4439.04,4523.7,3935.16,3979.53,4400.79,3634.26
4471.17,4694.04,4129.47,4200.87,4405.38,4698.12,4649.67,3806.13,4438.02,4522.17,3931.59,3979.53,4400.28,3634.26
4485.96,4696.59,4137.12,4202.91,4402.32,4698.12,4642.02,3803.58,4437.51,4523.1900000000005,3939.2400000000002,3988.71,4403.85,3645.9900000000002
4466.58,4694.04,4124.88,4197.3,4408.4400000000005,4704.75,4651.2,3807.66,4436.49,4523.1900000000005,3927.0,3970.86,4396.71,3629.16
4473.21,4696.59,4135.59,4199.34,4405.38,4698.12,4646.1,3806.64,4439.55,4522.17,3934.14,3977.4900000000002,4400.28,3637.32
4476.78,4689.45,4134.57,4200.36,4404.87,4697.1,4644.06,3806.64,4441.08,4523.1900000000005,3934.65,3980.55,4400.28,3636.3
4469.64,4687.92,4131.0,4200.36,4405.38,4700.16,4645.59,3809.7000000000003,4439.04,4525.2300000000005,3930.06,3976.4700000000003,4398.24,3629.16
4481.88,4697.61,4141.71,4201.89,4400.79,4697.1,4638.45,3806.64,4438.53,4522.17,3937.71,3983.61,4404.87,3641.4
4466.58,4693.02,4126.41,4198.32,4406.4,4701.6900000000005,4647.12,3804.09,4438.53,4517.58,3927.0,3968.82,4397.7300000000005,3630.18
4472.7,4691.49,4132.02,4197.3,4403.34,4698.12,4643.04,3804.6,4440.06,4522.17,3935.16,3978.51,4401.3,3638.85
4476.27,4693.02,4134.06,4195.77,4400.79,4697.1,4644.06,3806.64,4439.04,4525.2300000000005,3935.67,3982.59,4402.32,3640.89
4464.54,4694.04,4125.39,4197.81,4406.91,4700.16,4650.18,3807.66,4435.9800000000005,4521.66,3927.0,3969.84,4396.71,3630.18
4479.84,4696.59,4138.65,4200.87,4404.36,4697.1,4637.43,3807.15,4438.53,4521.66,3938.2200000000003,3980.04,4405.89,3643.9500000000003
4473.21,4689.45,4130.49,4196.28,4405.89,4701.6900000000005,4645.08,3809.19,4440.06,4520.64,3931.08,3974.4300000000003,4402.32,3633.2400000000002
4473.21,4692.0,4135.08,4198.83,4404.36,4696.08,4648.14,3808.6800000000003,4439.55,4519.62,3935.16,3978.0,4399.26,3636.3
4476.78,4694.55,4138.14,4199.34,4401.81,4695.06,4642.53,3808.6800000000003,4440.06,4521.66,3938.2200000000003,3979.02,4401.81,3641.91
4467.09,4688.9400000000005,4125.9,4196.79,4405.38,4702.71,4649.67,3810.21,4439.04,4523.7,3927.0,3969.84,4398.75,3627.12
4479.33,4692.0,4137.63,4201.38,4399.77,4696.08,4646.1,3807.15,4438.02,4525.2300000000005,3937.71,3984.12,4403.34,3640.38
4471.17,4692.51,4131.0,4199.34,4403.85,4699.14,4647.63,3809.19,4439.04,4522.68,3932.1,3975.4500000000003,4398.24,3635.79
4471.68,4695.06,4133.04,4199.34,4407.93,4701.6900000000005,4646.1,3810.7200000000003,4441.59,4522.17,3931.59,3974.94,4398.75,3630.18
4481.88,4696.59,4139.67,4201.38,4403.85,4698.12,4645.08,3809.19,4440.06,4524.72,3937.71,3984.63,4400.79,3639.36
4467.09,4694.04,4126.92,4199.85,4406.4,4701.18,4654.77,3809.19,4436.49,4522.68,3928.02,3971.37,4391.61,3629.16
4478.82,4697.61,4137.63,4200.36,4405.38,4698.12,4644.06,3807.15,4440.06,4520.64,3936.1800000000003,3980.04,4400.79,3640.89
4476.27,4693.02,4133.55,4196.79,4407.93,4701.18,4644.57,3806.64,4441.59,4522.17,3934.65,3979.02,4404.87,3640.38
4470.15,4692.51,4131.0,4196.79,4405.38,4701.6900000000005,4647.63,3806.13,4439.04,4524.21,3933.63,3974.94,4401.3,3634.77
4479.84,4697.1,4141.2,4198.32,4400.28,4695.57,4641.51,3805.62,4439.04,4522.68,3937.71,3981.57,4403.34,3642.42
4466.07,4690.9800000000005,4129.9800000000005,4198.83,4407.42,4699.65,4651.2,3808.17,4438.02,4518.6,3923.4300000000003,3973.41,4398.24,3632.73
4477.29,4694.04,4137.63,4204.4400000000005,4405.38,4698.12,4644.57,3808.17,4439.04,4521.15,3934.65,3984.63,4402.32,3641.91
4475.25,4695.57,4134.06,4202.4,4407.42,4700.67,4645.08,3808.6800000000003,4439.55,4523.1900000000005,3932.61,3979.53,4399.77,3636.3
4465.56,4693.02,4129.47,4199.34,4409.46,4702.71,4649.16,3804.09,4438.02,4521.15,3923.4300000000003,3972.9,4397.22,3629.67
4482.9,4693.53,4142.7300000000005,4200.87,4402.32,4697.61,4640.49,3801.54,4436.49,4522.17,3935.16,3985.65,4403.34,3645.48
4469.13,4686.9,4128.96,4197.3,4406.4,4703.22,4651.71,3809.19,4435.47,4524.21,3925.98,3969.33,4394.67,3631.2000000000003
4473.72,4690.47,4134.06,4198.32,4405.38,4700.67,4648.14,3808.17,4441.08,4523.7,3931.59,3976.4700000000003,4398.75,3639.36
4477.8,4693.02,4136.61,4198.83,4403.34,4700.67,4640.49,3805.11,4442.1,4523.1900000000005,3932.61,3984.12,4401.81,3643.44
4465.05,4689.45,4126.92,4196.79,4406.4,4704.75,4645.59,3807.66,4437.51,4522.17,3923.94,3973.41,4396.2,3627.12
4481.37,4690.47,4138.65,4197.81,4404.36,4695.57,4639.47,3806.64,4439.55,4521.66,3938.73,3983.1,4403.85,3642.42
4474.74,4689.45,4129.47,4195.26,4407.42,4698.63,4644.06,3808.17,4439.55,4522.68,3932.61,3977.4900000000002,4400.28,3636.81
4473.21,4695.06,4132.53,4198.32,4404.87,4698.63,4643.04,3807.66,4437.51,4522.68,3933.63,3981.06,4399.26,3634.77
4477.29,4697.1,4135.59,4197.3,4402.32,4696.08,4642.53,3808.17,4438.53,4522.17,3937.71,3982.59,4403.85,3640.89
4463.52,4690.47,4125.39,4195.26,4407.93,4703.7300000000005,4649.67,3810.7200000000003,4438.53,4522.68,3928.53,3969.33,4397.7300000000005,3632.73
4477.8,4692.51,4138.14,4200.36,4403.34,4699.14,4639.47,3806.13,4439.04,4523.1900000000005,3937.71,3984.63,4401.81,3644.9700000000003
4474.2300000000005,4691.49,4132.02,4198.83,4403.85,4698.63,4644.06,3803.07,4439.04,4520.13,3931.59,3979.02,4400.79,3638.85
4471.17,4692.0,4133.55,4200.36,4407.42,4700.16,4647.12,3805.11,4438.02,4519.62,3932.1,3973.41,4399.26,3638.34
4478.82,4695.06,4141.71,4202.4,4404.36,4699.65,4641.51,3808.17,4438.02,4518.6,3935.67,3980.55,4400.79,3646.5
4466.58,4692.51,4126.92,4200.87,4407.42,4702.71,4650.6900000000005,3808.17,4439.04,4517.07,3924.4500000000003,3972.9,4395.6900000000005,3631.2000000000003
4477.8,4695.06,4135.08,4203.42,4404.87,4697.61,4644.57,3806.13,4439.04,4520.13,3935.16,3981.57,4402.32,3642.93
4473.72,4694.04,4133.55,4197.81,4405.38,4700.67,4647.63,3808.17,4437.0,4519.11,3932.61,3975.4500000000003,4401.3,3641.91
4468.62,4692.51,4132.53,4196.28,4406.4,4699.14,4651.2,3806.64,4437.0,4518.09,3930.57,3974.94,4399.26,3636.3
4481.88,4694.04,4142.7300000000005,4200.87,4404.36,4695.57,4644.57,3805.62,4439.04,4522.68,3940.77,3988.2000000000003,4403.34,3646.5
4467.09,4690.47,4128.96,4201.38,4409.97,4705.26,4652.7300000000005,3808.17,4435.9800000000005,4523.7,3928.53,3973.41,4396.2,3631.71
4473.21,4692.51,4136.61,4202.4,4404.87,4701.18,4645.59,3804.6,4437.51,4523.1900000000005,3933.12,3979.02,4401.81,3636.81
4474.2300000000005,4690.9800000000005,4133.04,4198.32,4404.36,4698.63,4647.12,3806.13,4439.55,4522.17,3932.61,3979.02,4400.28,3636.81
4470.66,4692.51,4127.9400000000005,4198.32,4407.93,4702.71,4654.26,3810.7200000000003,4436.49,4521.66,3931.08,3975.4500000000003,4395.18,3632.2200000000003
4486.9800000000005,4697.61,4141.71,4201.89,4401.81,4699.65,4642.02,3810.21,4435.9800000000005,4524.21,3942.81,3987.69,4402.32,3648.03
4470.15,4692.51,4128.96,4199.34,4404.36,4703.22,4647.12,3810.21,4437.0,4525.74,3930.06,3974.94,4397.22,3634.77
4471.68,4695.57,4132.53,4200.36,4404.87,4701.18,4647.12,3808.17,4439.04,4524.72,3932.1,3979.02,4399.26,3637.83
4473.21,4696.08,4133.04,4197.81,4403.34,4700.16,4646.1,3808.6800000000003,4437.51,4522.68,3932.61,3980.55,4401.81,3641.4
4460.97,4692.0,4124.37,4197.3,4406.4,4703.22,4650.18,3809.19,4437.0,4521.66,3923.94,3971.37,4398.24,3630.18
4478.82,4696.08,4139.16,4201.38,4401.81,4696.59,4641.51,3807.15,4442.1,4523.1900000000005,3938.2200000000003,3985.14,4405.38,3644.46
4469.64,4692.51,4130.49,4197.81,4402.32,4700.16,4647.63,3808.6800000000003,4439.55,4522.68,3931.59,3975.4500000000003,4401.3,3637.83
4469.64,4692.0,4134.57,4198.83,4399.77,4700.67,4646.1,3807.66,4437.0,4522.17,3930.57,3976.98,4398.75,3639.36
4478.82,4692.51,4137.12,4199.34,4401.3,4698.63,4641.0,3806.13,4438.53,4523.1900000000005,3935.16,3983.61,4399.26,3642.93
4467.09,4688.43,4122.84,4196.79,4406.91,4703.22,4646.61,3811.23,4438.53,4521.66,3925.98,3971.88,4395.18,3628.14
4479.33,4692.51,4136.1,4199.85,4401.3,4697.1,4639.47,3811.7400000000002,4440.06,4523.1900000000005,3935.16,3982.08,4400.79,3640.89
4474.2300000000005,4692.51,4129.47,4199.85,4403.85,4700.67,4648.65,3810.7200000000003,4440.06,4524.21,3930.06,3974.94,4395.18,3635.28
4472.1900000000005,4692.51,4127.43,4201.38,4405.38,4700.16,4651.2,3807.66,4439.04,4523.1900000000005,3929.04,3972.39,4395.6900000000005,3632.73
4480.86,4695.06,4138.14,4197.81,4403.34,4693.02,4641.0,3805.62,4439.55,4522.17,3935.67,3982.08,4405.38,3642.42
4464.03,4694.55,4127.9400000000005,4195.77,4408.4400000000005,4699.65,4648.14,3809.7000000000003,4440.06,4521.15,3927.0,3970.86,4396.71,3629.16
4477.8,4699.65,4138.65,4205.97,4402.83,4697.61,4644.06,3808.17,4441.08,4521.66,3937.71,3980.04,4397.22,3640.38
4475.76,4694.55,4134.57,4201.38,4403.34,4700.16,4645.59,3806.64,4438.02,4522.68,3932.1,3976.4700000000003,4398.75,3636.81
4465.56,4689.96,4128.96,4196.28,4407.42,4703.22,4648.14,3806.64,4434.45,4523.7,3927.51,3970.35,4398.75,3631.71
4480.86,4692.51,4138.14,4200.87,4402.83,4697.1,4640.49,3804.6,4437.0,4525.2300000000005,3937.71,3982.59,4402.83,3649.05
4470.15,4689.45,4128.96,4201.38,4405.38,4700.67,4650.6900000000005,3805.62,4439.04,4524.72,3927.0,3975.4500000000003,4395.18,3637.83
4474.74,4694.04,4139.16,4203.42,4405.38,4700.16,4645.08,3804.6,4437.51,4525.74,3935.16,3982.59,4401.81,3641.4
4477.8,4694.55,4135.08,4198.32,4405.38,4698.12,4642.53,3806.13,4435.47,4524.72,3937.71,3981.06,4405.38,3645.48
4470.15,4693.02,4127.9400000000005,4198.83,4406.91,4697.61,4649.16,3806.13,4437.51,4524.21,3931.59,3975.4500000000003,4400.79,3637.83
4479.33,4696.59,4141.2,4202.91,4405.89,4697.61,4643.04,3804.09,4441.08,4523.1900000000005,3937.2000000000003,3983.1,4404.36,3643.9500000000003
4467.6,4690.47,4130.49,4197.81,4409.46,4705.77,4650.18,3806.64,4440.06,4518.6,3925.4700000000003,3970.86,4398.24,3630.69
4476.78,4692.51,4136.61,4198.83,4402.32,4699.65,4647.63,3805.62,4440.57,4519.11,3935.16,3981.06,4401.3,3639.87
4482.9,4696.08,4140.6900000000005,4199.85,4400.79,4696.08,4645.08,3804.6,4439.55,4524.21,3938.2200000000003,3984.63,4404.36,3645.48
4470.15,4691.49,4132.53,4198.32,4409.97,4703.22,4649.16,3805.62,4438.02,4526.25,3927.51,3971.37,4398.24,3632.73
4479.33,4692.0,4142.22,4200.36,4402.32,4697.61,4641.0,3806.64,4440.06,4522.68,3937.71,3982.59,4401.81,3644.46
4466.58,4689.45,4130.49,4198.83,4401.3,4699.65,4650.18,3808.6800000000003,4437.51,4518.6,3928.02,3972.39,4396.2,3633.2400000000002
4471.68,4693.02,4136.1,4200.36,4404.87,4700.67,4647.12,3809.19,4437.0,4522.17,3930.57,3974.4300000000003,4398.75,3633.2400000000002
4486.47,4694.55,4140.18,4198.32,4405.89,4697.61,4638.96,3808.6800000000003,4441.59,4525.74,3940.26,3986.67,4404.87,3645.48
4471.68,4689.96,4126.41,4196.79,4409.46,4699.14,4648.14,3808.17,4442.1,4525.2300000000005,3929.55,3977.4900000000002,4398.75,3635.28
4478.82,4692.51,4140.6900000000005,4200.36,4404.87,4696.08,4642.53,3806.13,4439.55,4525.74,3938.2200000000003,3984.63,4402.83,3643.9500000000003
4470.66,4689.45,4133.55,4196.28,4406.91,4702.2,4645.59,3808.17,4439.04,4524.21,3930.57,3974.94,4399.77,3635.28
4468.62,4690.47,4128.96,4197.81,4407.42,4700.16,4646.61,3806.64,4441.08,4521.15,3927.0,3974.4300000000003,4398.24,3633.2400000000002
4479.33,4694.04,4139.16,4201.89,4405.38,4695.06,4643.04,3806.13,4440.57,4522.17,3935.16,3984.12,4402.83,3643.9500000000003
4463.52,4690.9800000000005,4127.43,4198.83,4408.4400000000005,4703.7300000000005,4653.75,3809.7000000000003,4436.49,4522.17,3925.98,3972.9,4396.2,3630.18
4476.27,4695.57,4137.12,4201.38,4402.32,4698.63,4646.1,3806.13,4438.02,4523.1900000000005,3935.16,3983.61,4400.79,3640.89
4478.31,4695.57,4137.63,4198.83,4403.85,4696.59,4643.04,3806.64,4440.57,4524.21,3934.65,3981.06,4400.28,3639.36
4471.17,4692.51,4134.06,4196.28,4406.91,4701.6900000000005,4645.08,3807.66,4439.04,4523.1900000000005,3931.08,3973.41,4399.26,3632.2200000000003
4479.33,4692.0,4137.63,4198.32,4401.81,4699.65,4641.0,3806.64,4438.02,4522.17,3936.69,3978.51,4404.36,3643.9500000000003
4466.07,4688.43,4123.35,4198.83,4405.38,4702.71,4651.2,3808.6800000000003,4438.02,4521.15,3927.0,3966.78,4394.16,3631.2000000000003
4476.78,4693.53,4133.55,4200.36,4403.85,4698.12,4646.61,3804.6,4439.55,4523.1900000000005,3935.67,3979.02,4397.7300000000005,3638.34
4478.82,4693.53,4134.57,4195.77,4402.32,4698.63,4644.57,3805.62,4438.53,4522.17,3932.61,3981.57,4400.28,3639.36
4468.62,4689.96,4127.9400000000005,4198.32,4403.85,4701.18,4651.71,3809.19,4435.9800000000005,4519.62,3924.96,3971.37,4398.24,3629.67
4481.88,4693.53,4137.63,4203.42,4400.79,4695.57,4645.59,3807.15,4439.55,4523.1900000000005,3936.69,3983.1,4404.87,3641.4
4468.62,4690.47,4126.41,4197.3,4406.4,4702.71,4649.16,3807.15,4440.57,4524.72,3927.0,3973.92,4398.75,3631.71
4474.2300000000005,4693.53,4134.57,4198.32,4403.85,4700.67,4643.04,3808.17,4440.06,4520.64,3930.57,3978.0,4399.26,3638.34
4479.84,4694.55,4136.1,4198.32,4401.81,4695.57,4643.04,3807.66,4438.53,4519.62,3933.63,3981.06,4400.79,3641.91
4466.07,4691.49,4124.88,4198.32,4405.38,4701.18,4650.6900000000005,3806.13,4438.02,4525.2300000000005,3928.53,3972.39,4397.7300000000005,3629.16
4478.82,4696.59,4139.67,4201.38,4399.26,4699.14,4638.45,3804.09,4440.57,4524.72,3943.83,3984.63,4405.38,3645.9900000000002
4468.62,4692.0,4129.9800000000005,4199.34,4403.34,4702.71,4645.08,3807.66,4439.55,4517.07,3934.14,3972.9,4399.26,3636.3
4469.64,4693.02,4131.0,4201.89,4405.89,4701.6900000000005,4649.16,3809.7000000000003,4438.53,4519.11,3930.06,3974.94,4398.75,3630.69
4478.31,4694.55,4138.14,4201.89,4402.32,4699.65,4643.55,3809.7000000000003,4439.55,4523.1900000000005,3936.1800000000003,3981.57,4403.85,3639.87
4464.54,4690.9800000000005,4125.39,4198.32,4404.87,4702.2,4649.67,3809.19,4438.53,4522.68,3929.55,3968.82,4398.24,3632.2200000000003
4480.86,4695.57,4138.14,4198.32,4402.32,4694.55,4642.02,3808.17,4440.06,4524.21,3940.77,3984.12,4401.81,3644.9700000000003
4476.27,4694.04,4133.04,4196.79,4406.91,4699.65,4648.65,3813.27,4440.06,4522.68,3934.65,3979.53,4400.28,3636.81
4468.62,4693.53,4131.51,4200.87,4407.42,4702.71,4650.18,3811.7400000000002,4439.04,4522.17,3930.06,3973.92,4399.77,3631.71
4469.64,4693.53,4127.9400000000005,4193.22,4404.36,4703.22,4650.6900000000005,3806.64,4439.04,4522.68,3929.04,3971.37,4396.71,3629.16
4477.29,4698.12,4139.16,4197.81,4401.3,4701.18,4645.08,3808.17,4440.06,4523.7,3937.71,3980.55,4401.81,3637.83
4477.29,4694.04,4136.1,4198.83,4401.81,4701.18,4645.59,3808.6800000000003,4439.55,4523.7,3932.61,3978.0,4400.79,3638.34
4473.72,4690.9800000000005,4129.9800000000005,4199.34,4405.89,4702.2,4648.65,3807.66,4440.06,4521.66,3927.51,3973.92,4397.22,3632.73
4482.39,4696.08,4139.16,4201.38,4403.85,4697.61,4640.49,3807.15,4442.1,4521.66,3938.73,3984.63,4402.32,3643.44
4465.05,4694.55,4125.9,4198.32,4406.91,4701.6900000000005,4650.6900000000005,3808.17,4437.51,4521.66,3928.53,3975.96,4397.22,3631.71
4471.68,4695.57,4133.04,4202.4,4403.85,4698.12,4648.14,3805.62,4437.0,4523.1900000000005,3934.14,3984.12,4401.3,3639.36
4472.7,4693.53,4135.59,4202.4,4405.89,4699.14,4644.57,3807.15,4440.57,4522.68,3934.14,3980.55,4400.79,3642.42
4463.52,4691.49,4130.49,4200.36,4409.46,4704.24,4649.16,3808.17,4439.55,4521.15,3927.51,3970.35,4395.6900000000005,3632.73
4479.84,4693.02,4140.6900000000005,4199.85,4402.83,4698.63,4644.57,3804.09,4438.02,4523.1900000000005,3935.67,3985.14,4401.81,3642.93
4471.68,4687.92,4129.47,4196.28,4406.91,4702.2,4651.71,3804.09,4437.51,4524.21,3925.98,3977.4900000000002,4398.75,3631.2000000000003
4477.29,4691.49,4136.61,4197.81,4406.4,4699.65,4645.08,3805.62,4440.06,4524.21,3935.16,3980.55,4400.79,3638.34
4481.37,4692.51,4138.14,4198.83,4403.34,4697.1,4642.02,3806.13,4440.06,4524.72,3940.26,3981.57,4400.28,3646.5
4467.6,4688.43,4126.92,4198.32,4406.4,4701.18,4650.6900000000005,3804.6,4438.53,4524.72,3927.0,3971.37,4396.2,3631.2000000000003
4480.86,4693.53,4143.75,4199.85,4402.83,4697.1,4641.51,3803.58,4440.57,4524.21,3934.65,3984.12,4402.32,3640.89
4471.17,4692.51,4133.55,4195.77,4404.36,4701.18,4649.16,3810.21,4439.04,4520.64,3927.51,3974.94,4395.6900000000005,3636.81
4473.21,4693.53,4130.49,4197.81,4403.85,4698.63,4651.2,3808.6800000000003,4437.51,4519.62,3930.06,3975.96,4399.26,3640.38
4484.9400000000005,4695.06,4138.65,4197.81,4401.81,4694.55,4642.02,3803.58,4439.55,4521.66,3936.1800000000003,3982.59,4406.91,3644.46
4465.05,4690.47,4127.9400000000005,4194.75,4406.91,4701.18,4648.65,3808.17,4440.57,4522.17,3924.4500000000003,3967.8,4394.67,3629.16
4474.74,4692.51,4136.61,4198.83,4402.83,4696.59,4642.02,3806.64,4441.59,4521.66,3935.67,3978.0,4399.77,3642.42
4473.72,4689.45,4130.49,4196.79,4405.38,4698.12,4644.06,3805.62,4440.06,4522.68,3931.08,3976.4700000000003,4402.83,3638.34
4470.66,4690.9800000000005,4132.02,4196.79,4405.38,4699.14,4645.08,3809.19,4440.57,4525.2300000000005,3929.55,3975.4500000000003,4398.24,3636.3
4479.33,4696.59,4141.2,4201.38,4398.75,4695.06,4639.47,3807.66,4443.63,4525.2300000000005,3939.2400000000002,3983.61,4401.81,3647.52
4464.03,4694.55,4127.43,4201.89,4406.4,4699.14,4649.67,3806.13,4440.06,4524.21,3927.51,3971.37,4400.79,3630.69
4476.78,4696.59,4138.14,4201.89,4406.4,4695.57,4644.57,3807.15,4434.96,4523.7,3935.16,3983.1,4405.89,3642.42
4476.27,4693.02,4135.59,4198.32,4404.87,4697.61,4645.59,3809.19,4435.47,4520.64,3933.63,3979.02,4401.3,3643.9500000000003
4464.03,4692.0,4129.47,4197.3,4405.38,4699.65,4649.16,3805.62,4439.55,4522.17,3929.04,3970.86,4397.7300000000005,3632.73
4476.78,4697.1,4140.18,4199.34,4402.32,4696.59,4642.53,3805.62,4440.57,4527.27,3939.2400000000002,3984.12,4405.38,3645.9900000000002
4470.15,4690.47,4129.47,4198.83,4406.4,4704.24,4652.22,3809.19,4436.49,4523.1900000000005,3930.06,3972.9,4399.77,3635.79
4476.78,4689.45,4137.12,4201.89,4404.36,4699.65,4645.59,3805.11,4436.49,4520.64,3935.67,3977.4900000000002,4401.81,3639.87
4474.2300000000005,4692.51,4134.06,4199.85,4403.34,4696.59,4643.55,3806.13,4439.55,4523.7,3933.63,3980.04,4399.26,3640.89
4464.54,4692.51,4126.41,4199.85,4405.89,4701.18,4652.22,3810.21,4439.55,4525.2300000000005,3926.4900000000002,3972.39,4394.16,3631.71
4479.84,4694.04,4141.2,4202.91,4403.34,4698.12,4643.55,3808.17,4439.55,4524.21,3937.71,3982.08,4403.34,3644.46
4465.56,4690.9800000000005,4128.45,4199.34,4409.46,4702.71,4649.67,3809.19,4437.51,4520.64,3927.51,3972.9,4397.7300000000005,3633.2400000000002
4470.15,4698.12,4133.04,4201.89,4406.91,4700.16,4645.08,3809.19,4439.04,4522.17,3933.12,3980.04,4400.79,3640.38
4479.84,4698.63,4136.1,4199.34,4404.36,4699.65,4641.0,3807.15,4442.1,4523.1900000000005,3938.73,3983.61,4403.85,3646.5
4464.54,4692.0,4122.84,4197.3,4409.97,4704.24,4652.22,3805.11,4438.02,4521.66,3925.4700000000003,3968.82,4392.63,3629.67
4477.29,4696.08,4138.14,4201.89,4402.83,4697.1,4643.04,3806.13,4436.49,4523.1900000000005,3937.2000000000003,3981.06,4400.28,3645.48
4469.64,4692.51,4133.04,4197.3,4403.85,4701.6900000000005,4646.1,3812.76,4437.0,4521.66,3931.59,3977.4900000000002,4401.81,3641.4
4467.6,4690.47,4130.49,4199.85,4403.85,4702.2,4648.65,3810.21,4437.0,4520.13,3928.53,3977.4900000000002,4398.24,3636.3
4479.33,4693.53,4134.57,4203.42,4400.79,4696.08,4643.55,3805.62,4438.53,4521.66,3936.1800000000003,3983.61,4400.79,3643.44
4469.13,4692.51,4125.9,4199.34,4406.4,4699.65,4646.61,3810.21,4440.06,4523.7,3931.08,3976.4700000000003,4400.79,3633.2400000000002
4479.33,4694.55,4137.63,4200.87,4403.85,4695.57,4641.0,3808.17,4441.08,4523.1900000000005,3936.69,3986.16,4404.36,3640.89
4470.66,4689.96,4129.47,4200.36,4404.36,4696.08,4647.12,3807.66,4438.02,4521.66,3928.02,3973.41,4399.26,3635.28
4465.05,4692.0,4126.41,4199.34,4406.4,4700.16,4647.12,3807.15,4438.53,4523.1900000000005,3930.57,3970.86,4399.26,3633.75
4479.33,4695.57,4136.1,4198.32,4402.32,4700.67,4639.9800000000005,3804.09,4441.59,4523.1900000000005,3938.73,3982.59,4401.81,3642.42
4466.07,4689.45,4126.41,4197.3,4403.85,4703.7300000000005,4649.16,3807.15,4440.06,4521.15,3925.98,3969.84,4394.67,3628.14
4474.74,4695.06,4137.12,4201.89,4401.3,4696.59,4643.55,3807.66,4440.06,4521.66,3935.16,3978.51,4400.79,3636.3
4477.8,4696.08,4133.04,4199.34,4404.87,4697.1,4644.57,3808.17,4440.06,4522.68,3932.61,3977.4900000000002,4399.77,3636.3
4469.64,4690.9800000000005,4126.92,4198.83,4405.89,4698.63,4650.18,3811.23,4440.06,4522.68,3927.0,3970.86,4396.2,3632.2200000000003
4476.78,4693.53,4138.14,4202.91,4400.28,4696.59,4642.53,3811.7400000000002,4440.57,4522.17,3936.1800000000003,3979.53,4404.36,3645.48
4464.54,4693.02,4125.9,4198.83,4406.4,4702.2,4649.67,3808.17,4439.04,4523.1900000000005,3925.4700000000003,3970.86,4396.71,3631.71
4474.74,4696.08,4134.06,4199.34,4405.89,4697.1,4646.1,3805.11,4439.55,4526.76,3934.14,3980.55,4399.26,3638.85
4476.78,4694.55,4136.1,4198.32,4403.85,4697.1,4643.04,3807.15,4439.04,4526.76,3938.2200000000003,3979.53,4403.85,3644.46
4466.58,4689.45,4126.92,4196.79,4407.93,4702.2,4649.16,3808.17,4437.51,4524.21,3929.04,3968.82,4398.75,3632.73
4480.86,4693.02,4140.18,4197.81,4403.85,4698.12,4641.51,3806.13,4438.53,4524.21,3937.2000000000003,3983.61,4401.81,3643.9500000000003
4469.13,4692.0,4132.02,4197.3,4405.89,4702.71,4648.65,3808.6800000000003,4438.02,4523.1900000000005,3928.02,3974.4300000000003,4397.22,3634.77
4472.1900000000005,4694.55,4136.1,4202.4,4404.87,4699.65,4647.12,3810.7200000000003,4437.0,4522.68,3932.1,3975.96,4402.83,3636.81
4478.31,4695.06,4139.67,4199.85,4402.32,4697.1,4643.04,3810.7200000000003,4437.51,4522.17,3939.75,3982.59,4404.87,3640.89
4466.07,4691.49,4124.88,4195.77,4406.4,4702.71,4650.18,3810.21,4437.51,4521.15,3929.04,3972.39,4395.18,3631.2000000000003
4479.84,4694.04,4135.59,4198.83,4405.38,4697.1,4642.53,3807.15,4438.02,4524.21,3936.1800000000003,3983.1,4403.85,3648.03
4470.15,4691.49,4132.53,4194.24,4407.42,4700.16,4649.16,3807.15,4438.53,4524.72,3932.61,3978.51,4401.81,3639.36
4467.6,4693.02,4135.59,4195.77,4404.36,4701.6900000000005,4648.65,3805.62,4440.06,4524.21,3933.12,3978.51,4396.2,3633.2400000000002
4480.86,4694.04,4139.16,4199.34,4403.34,4698.12,4642.02,3804.09,4439.55,4524.21,3935.16,3982.59,4399.26,3643.9500000000003
4469.64,4689.96,4125.39,4198.83,4408.4400000000005,4703.7300000000005,4652.7300000000005,3807.15,4438.02,4522.17,3925.98,3969.84,4398.75,3630.69
4478.31,4695.06,4139.16,4201.38,4401.81,4698.12,4643.04,3806.64,4440.57,4523.7,3938.73,3983.1,4402.83,3637.83
4472.1900000000005,4692.0,4133.55,4197.3,4405.38,4699.65,4643.04,3806.64,4439.55,4523.7,3932.61,3978.0,4399.26,3635.79
4469.64,4691.49,4131.0,4197.81,4407.42,4701.18,4647.12,3805.11,4439.55,4522.68,3930.06,3973.41,4400.28,3635.28
4481.37,4696.08,4143.24,4203.42,4402.83,4696.08,4642.53,3802.56,4440.57,4522.17,3938.73,3984.63,4403.34,3644.46
4464.54,4691.49,4129.9800000000005,4199.34,4409.97,4703.22,4650.6900000000005,3805.11,4434.96,4521.66,3924.96,3971.88,4394.16,3629.16
4474.74,4693.53,4135.08,4199.34,4407.93,4700.16,4646.1,3805.11,4436.49,4523.1900000000005,3932.61,3979.53,4400.28,3641.4
4474.74,4692.0,4131.51,4199.34,4405.38,4700.67,4647.12,3808.17,4440.06,4523.1900000000005,3932.1,3980.04,4401.81,3638.85
4466.58,4689.96,4128.96,4197.81,4409.97,4701.6900000000005,4648.65,3810.7200000000003,4440.06,4522.17,3928.02,3972.39,4398.24,3628.65
4481.37,4692.0,4139.67,4198.32,4406.91,4693.53,4638.96,3809.7000000000003,4442.1,4522.68,3939.75,3982.59,4403.34,3644.9700000000003
4466.07,4689.45,4125.9,4197.3,4407.93,4699.65,4649.67,3810.7200000000003,4441.08,4523.7,3929.04,3973.41,4397.22,3633.75
4473.21,4694.04,4134.06,4199.85,4404.87,4701.18,4647.63,3805.62,4441.59,4524.72,3932.61,3982.08,4400.79,3635.79
4481.37,4689.96,4135.59,4196.79,4404.87,4699.65,4644.57,3806.64,4441.59,4522.68,3935.16,3983.1,4403.85,3639.36
4467.6,4685.37,4128.45,4198.32,4405.89,4699.65,4649.67,3811.23,4437.0,4521.15,3928.53,3971.88,4397.7300000000005,3631.2000000000003
4477.8,4695.06,4139.67,4203.93,4399.77,4695.06,4641.0,3808.6800000000003,4438.02,4523.7,3936.1800000000003,3983.61,4402.32,3641.4
4462.5,4692.0,4123.86,4198.32,4406.91,4703.22,4651.2,3809.19,4439.04,4523.1900000000005,3924.4500000000003,3969.84,4395.6900000000005,3628.65
4464.54,4691.49,4130.49,4197.81,4407.93,4702.71,4649.16,3807.66,4438.02,4521.66,3931.08,3970.86,4396.2,3636.3
4482.9,4695.06,4141.2,4198.83,4401.3,4697.61,4638.45,3806.13,4438.53,4523.1900000000005,3939.75,3982.08,4401.81,3648.03
4473.21,4692.51,4129.47,4199.85,4404.87,4699.65,4646.1,3807.15,4439.04,4525.2300000000005,3930.06,3974.4300000000003,4397.22,3634.26
4477.8,4694.04,4138.65,4204.4400000000005,4401.81,4696.59,4644.06,3805.62,4439.55,4524.72,3938.73,3981.57,4404.36,3643.9500000000003
4468.11,4689.96,4129.47,4201.89,4404.87,4702.2,4648.65,3806.64,4436.49,4521.66,3932.61,3972.9,4402.83,3636.3
4472.1900000000005,4691.49,4128.96,4201.89,4404.87,4702.71,4647.63,3806.13,4437.51,4524.21,3935.67,3977.4900000000002,4400.79,3633.75
4482.9,4697.1,4139.16,4199.85,4400.79,4699.65,4643.55,3806.13,4439.55,4527.27,3941.28,3985.65,4402.32,3642.93
4467.09,4694.04,4128.45,4198.32,4407.42,4703.7300000000005,4651.2,3807.15,4438.02,4525.74,3927.0,3970.35,4397.22,3629.67
4475.25,4696.59,4137.63,4203.93,4406.91,4697.61,4643.55,3804.09,4439.55,4523.7,3934.65,3979.02,4403.85,3639.36
4470.15,4692.51,4132.02,4198.32,4406.91,4700.67,4648.65,3805.62,4441.59,4521.15,3931.59,3975.4500000000003,4401.3,3634.77
4470.15,4689.96,4130.49,4196.28,4406.91,4702.71,4651.2,3808.6800000000003,4440.57,4522.17,3930.57,3973.92,4399.77,3631.2000000000003
4483.92,4695.06,4140.18,4202.4,4401.81,4696.59,4640.49,3808.6800000000003,4439.04,4523.7,3940.77,3985.14,4406.4,3645.48
4467.09,4692.51,4125.9,4200.36,4404.87,4702.2,4648.14,3810.7200000000003,4438.53,4520.64,3927.51,3974.4300000000003,4399.26,3631.2000000000003
4473.72,4693.02,4134.57,4199.34,4403.34,4700.16,4644.57,3811.7400000000002,4440.57,4522.68,3935.16,3982.59,4400.79,3637.32
4474.2300000000005,4692.0,4137.12,4199.34,4404.87,4697.61,4645.08,3810.21,4439.04,4523.7,3935.67,3978.51,4400.28,3639.87
4465.56,4692.0,4131.51,4200.87,4406.91,4698.63,4649.67,3807.15,4437.51,4521.15,3929.55,3973.41,4398.75,3632.2200000000003
4478.82,4695.06,4136.61,4200.36,4403.34,4696.08,4641.51,3808.17,4440.57,4522.68,3939.2400000000002,3986.16,4404.87,3642.42
4463.01,4692.0,4123.35,4195.77,4408.95,4702.71,4652.22,3813.27,4441.08,4524.21,3927.51,3969.84,4397.7300000000005,3628.14
4469.13,4695.57,4136.1,4198.32,4406.4,4697.61,4649.67,3808.6800000000003,4440.57,4524.21,3932.1,3975.4500000000003,4400.79,3634.77
4478.31,4694.55,4140.18,4196.79,4402.83,4697.1,4644.06,3804.6,4439.55,4524.21,3935.67,3982.59,4403.34,3640.89
4465.05,4690.9800000000005,4127.43,4197.3,4405.89,4705.77,4648.14,3807.66,4437.51,4523.1900000000005,3927.0,3973.41,4396.71,3631.2000000000003
4477.8,4694.04,4137.12,4203.93,4402.83,4700.16,4640.49,3807.15,4438.53,4522.17,3936.69,3984.63,4399.26,3644.46
4472.1900000000005,4688.43,4126.41,4200.36,4405.89,4700.16,4647.12,3805.62,4438.02,4523.7,3930.57,3976.98,4397.22,3633.75
4474.74,4691.49,4132.02,4200.36,4405.38,4699.65,4646.1,3805.62,4438.53,4524.21,3933.12,3979.53,4401.81,3634.26
4482.9,4698.12,4138.65,4202.4,4404.87,4700.16,4644.06,3809.7000000000003,4440.57,4522.17,3935.67,3983.61,4401.81,3644.9700000000003
4468.62,4695.57,4125.39,4199.85,4409.46,4703.7300000000005,4652.22,3810.7200000000003,4438.02,4524.21,3926.4900000000002,3974.94,4393.65,3631.71
4478.31,4694.55,4135.59,4199.34,4403.85,4696.08,4642.53,3803.07,4437.0,4525.74,3937.2000000000003,3985.14,4401.81,3638.34
4470.15,4689.96,4130.49,4196.79,4405.89,4698.63,4646.1,3804.09,4436.49,4523.7,3929.04,3974.94,4398.24,3634.77
4471.68,4694.04,4134.06,4199.85,4407.93,4700.16,4645.08,3807.15,4438.02,4523.7,3930.57,3977.4900000000002,4396.71,3636.81
4484.9400000000005,4697.1,4141.2,4197.81,4403.34,4696.59,4637.9400000000005,3806.13,4441.08,4522.17,3940.26,3990.2400000000002,4404.36,3642.42
4468.62,4688.9400000000005,4125.9,4194.75,4406.4,4702.2,4648.65,3808.17,4439.55,4518.09,3928.53,3971.88,4397.7300000000005,3628.14
4477.29,4689.96,4135.08,4203.93,4405.38,4698.63,4644.06,3807.15,4439.55,4520.13,3934.65,3976.98,4400.28,3639.87
4473.72,4690.9800000000005,4133.04,4202.4,4404.87,4700.16,4644.06,3807.66,4440.57,4524.21,3932.1,3979.02,4399.77,3637.32
4469.64,4695.06,4133.55,4198.32,4403.85,4700.67,4647.63,3807.15,4439.55,4522.17,3933.12,3976.98,4400.28,3635.28
4482.9,4697.61,4141.2,4199.85,4402.32,4694.04,4644.06,3804.6,4438.02,4520.13,3942.81,3982.08,4407.93,3647.01
4464.54,4688.43,4122.84,4196.79,4409.46,4699.14,4651.71,3805.62,4437.0,4522.68,3928.53,3968.31,4397.7300000000005,3628.14
4470.15,4689.96,4133.04,4197.81,4404.87,4697.1,4643.55,3804.6,4440.06,4526.76,3934.65,3978.0,4398.24,3637.32
4477.8,4692.51,4138.14,4196.28,4402.83,4697.1,4644.06,3805.11,4440.57,4523.1900000000005,3936.1800000000003,3977.4900000000002,4402.32,3642.42
4474.2300000000005,4690.9800000000005,4131.0,4196.28,4405.89,4699.65,4649.67,3805.62,4439.55,4519.62,3930.57,3971.88,4400.79,3634.77
4481.88,4693.53,4137.12,4199.85,4401.3,4699.65,4639.9800000000005,3807.66,4441.08,4525.2300000000005,3936.1800000000003,3985.14,4402.32,3644.46
4466.58,4690.9800000000005,4126.41,4199.34,4407.93,4707.3,4648.14,3809.7000000000003,4440.06,4525.2300000000005,3925.4700000000003,3973.41,4395.18,3629.67
4475.76,4693.53,4137.12,4201.38,4405.38,4700.67,4645.08,3806.64,4441.08,4522.68,3935.16,3979.02,4401.3,3637.83
4480.86,4694.04,4136.1,4198.32,4400.28,4697.61,4642.53,3808.17,4440.06,4523.7,3937.2000000000003,3982.59,4403.34,3645.48
4466.58,4691.49,4123.35,4197.3,4405.89,4702.2,4651.2,3809.7000000000003,4437.0,4523.7,3924.96,3971.37,4397.22,3630.18
4478.31,4694.55,4139.16,4202.4,4404.87,4696.08,4644.06,3805.62,4441.08,4524.21,3935.67,3981.06,4404.36,3640.89
4465.05,4687.41,4132.53,4199.34,4407.93,4701.6900000000005,4648.14,3806.64,4442.61,4523.7,3928.53,3976.4700000000003,4399.77,3632.2200000000003
4469.13,4688.43,4133.55,4197.81,4406.91,4702.2,4644.06,3806.64,4439.55,4524.21,3932.1,3982.59,4399.77,3634.77
4482.9,4694.04,4138.14,4196.28,4404.36,4698.12,4639.9800000000005,3805.62,4439.55,4522.17,3938.73,3984.63,4403.85,3644.9700000000003
4476.78,4694.55,4138.65,4202.4,4402.83,4697.61,4644.57,3807.15,4440.06,4525.74,3936.1800000000003,3983.61,4401.3,3640.38
4469.64,4692.0,4133.04,4199.34,4406.4,4701.18,4647.63,3807.15,4437.51,4525.2300000000005,3929.04,3977.4900000000002,4397.7300000000005,3633.75
4468.62,4692.51,4132.53,4198.83,4403.85,4702.71,4648.65,3808.17,4436.49,4521.15,3929.04,3971.88,4398.75,3631.71
4481.37,4694.55,4137.63,4199.34,4398.75,4697.61,4643.04,3807.66,4438.53,4520.64,3937.71,3980.55,4405.38,3643.9500000000003
4465.05,4693.53,4123.35,4198.32,4406.91,4701.6900000000005,4650.18,3807.15,4439.04,4521.66,3925.98,3972.9,4397.7300000000005,3630.69
4471.68,4698.63,4138.14,4201.89,4406.4,4698.12,4641.51,3805.62,4440.06,4521.66,3936.69,3984.12,4400.28,3638.85
4472.1900000000005,4694.04,4136.61,4200.87,4404.36,4699.65,4642.02,3809.19,4438.53,4519.62,3936.69,3976.98,4400.79,3636.3
4471.17,4691.49,4128.45,4200.36,4405.38,4700.16,4647.12,3808.6800000000003,4438.53,4520.13,3932.61,3971.37,4397.7300000000005,3630.18
4482.39,4696.08,4136.61,4200.87,4403.85,4695.06,4641.0,3804.09,4440.57,4524.72,3938.73,3984.12,4400.79,3641.4
4465.05,4690.9800000000005,4125.9,4198.83,4407.42,4701.18,4649.67,3807.66,4437.51,4524.72,3925.4700000000003,3970.35,4394.67,3629.67
4475.25,4692.51,4134.57,4201.38,4401.81,4697.1,4644.57,3808.17,4439.04,4521.15,3935.16,3976.98,4403.34,3639.87
4475.76,4693.53,4130.49,4200.36,4404.36,4697.61,4644.57,3806.13,4440.57,4520.64,3936.1800000000003,3976.98,4404.36,3639.87
4460.46,4690.9800000000005,4124.37,4199.34,4409.46,4702.71,4652.22,3808.17,4437.51,4521.66,3928.02,3969.84,4394.67,3629.16
4474.74,4693.02,4140.18,4200.36,4401.3,4697.61,4642.53,3809.19,4438.53,4522.68,3938.2200000000003,3983.1,4399.77,3643.44
4465.05,4692.0,4130.49,4196.79,4402.32,4699.65,4648.14,3810.7200000000003,4440.06,4523.7,3930.06,3971.88,4398.24,3634.26
4470.66,4696.08,4136.61,4199.34,4404.87,4698.63,4646.1,3806.13,4438.53,4524.72,3934.65,3975.96,4401.3,3638.34
4475.25,4690.9800000000005,4137.12,4200.36,4404.87,4700.67,4644.57,3804.09,4438.53,4521.66,3936.1800000000003,3979.53,4403.85,3640.89
4461.4800000000005,4685.88,4124.37,4198.32,4405.38,4703.7300000000005,4650.6900000000005,3809.19,4439.04,4521.15,3928.02,3971.37,4398.24,3632.73
4479.33,4695.57,4138.14,4201.89,4400.28,4696.59,4639.47,3808.17,4438.53,4525.2300000000005,3938.73,3982.59,4402.83,3648.54
4474.2300000000005,4693.53,4128.96,4200.36,4405.38,4700.16,4646.1,3806.64,4437.0,4522.68,3928.53,3971.37,4398.24,3635.79
4471.17,4690.9800000000005,4129.9800000000005,4202.4,4405.89,4698.63,4648.14,3807.15,4439.04,4522.17,3931.59,3972.9,4398.24,3634.77
4478.31,4694.55,4138.65,4201.89,4402.32,4698.12,4643.55,3809.19,4439.55,4524.72,3939.2400000000002,3981.06,4401.3,3644.46
4469.13,4693.02,4129.9800000000005,4197.81,4407.42,4704.75,4650.18,3807.66,4439.04,4524.21,3928.02,3971.37,4395.6900000000005,3630.18
4482.39,4695.57,4140.6900000000005,4201.38,4403.34,4696.08,4641.0,3804.09,4441.59,4524.21,3938.73,3984.12,4403.34,3641.91
4475.25,4693.02,4133.55,4198.83,4405.89,4699.14,4645.08,3808.6800000000003,4439.55,4521.15,3935.16,3979.02,4402.32,3636.3
4470.66,4692.0,4132.02,4198.83,4406.91,4705.77,4648.65,3808.6800000000003,4437.51,4520.64,3932.1,3975.4500000000003,4401.3,3632.73
4479.84,4690.9800000000005,4140.18,4200.87,4401.81,4702.2,4644.06,3806.64,4439.55,4524.21,3939.2400000000002,3983.61,4404.36,3645.9900000000002
4466.58,4688.9400000000005,4130.49,4198.83,4407.93,4703.22,4653.75,3808.6800000000003,4439.04,4522.68,3928.53,3970.86,4395.18,3632.2200000000003
4479.33,4698.12,4139.16,4201.38,4405.38,4696.59,4644.57,3808.17,4440.06,4523.1900000000005,3935.16,3981.06,4399.77,3639.36
4475.76,4695.57,4131.51,4197.81,4404.36,4697.61,4642.53,3810.7200000000003,4439.04,4524.72,3932.61,3981.57,4400.79,3638.34
4466.07,4692.0,4127.43,4198.83,4406.4,4702.2,4648.14,3809.19,4437.0,4523.1900000000005,3929.55,3975.4500000000003,4399.26,3632.2200000000003
4477.8,4697.61,4142.7300000000005,4200.87,4400.79,4699.14,4643.04,3806.13,4439.55,4522.17,3938.73,3983.1,4402.83,3644.9700000000003
4462.5,4690.9800000000005,4131.0,4196.28,4401.81,4703.22,4650.18,3809.7000000000003,4440.06,4522.68,3925.98,3972.9,4395.18,3634.26
4472.7,4689.45,4135.08,4199.34,4401.3,4699.65,4646.61,3809.19,4440.57,4523.7,3933.12,3982.59,4400.28,3639.36
4478.82,4689.45,4131.51,4198.83,4405.38,4698.12,4646.61,3805.11,4440.06,4523.7,3932.61,3979.53,4400.79,3638.34
4465.56,4689.96,4125.39,4197.81,4409.97,4702.71,4649.67,3803.07,4439.04,4522.17,3921.9,3969.33,4395.6900000000005,3631.2000000000003
4479.84,4693.53,4141.71,4200.87,4404.36,4698.12,4638.45,3805.11,4440.57,4521.15,3933.63,3984.63,4403.85,3644.9700000000003
4473.21,4690.47,4129.9800000000005,4197.81,4406.4,4700.16,4648.14,3811.23,4438.02,4522.68,3928.02,3974.4300000000003,4398.75,3633.75
4475.76,4691.49,4132.53,4199.85,4405.38,4697.61,4646.61,3809.7000000000003,4438.53,4524.21,3933.12,3974.94,4396.71,3636.3
4478.82,4690.47,4137.12,4198.83,4404.36,4697.61,4643.55,3807.66,4441.59,4523.7,3936.1800000000003,3979.53,4400.79,3640.89
4467.09,4688.9400000000005,4126.41,4195.77,4405.89,4702.71,4652.22,3808.6800000000003,4439.04,4523.1900000000005,3927.0,3970.86,4399.26,3630.69
4480.35,4694.55,4139.67,4198.32,4400.79,4697.1,4642.02,3806.64,4439.04,4521.66,3937.2000000000003,3981.06,4402.83,3643.44
4472.1900000000005,4689.96,4133.55,4195.26,4404.87,4701.6900000000005,4644.57,3808.17,4439.55,4519.11,3930.57,3972.9,4398.24,3634.26
4472.1900000000005,4688.9400000000005,4132.53,4197.3,4403.85,4702.71,4645.59,3807.15,4439.55,4519.11,3932.1,3976.4700000000003,4400.79,3635.28
4478.82,4693.53,4133.55,4198.32,4401.81,4700.16,4642.53,3806.13,4440.57,4519.11,3935.67,3981.57,4403.85,3643.9500000000003
4464.03,4692.0,4123.86,4197.3,4408.95,4702.71,4648.14,3808.6800000000003,4438.53,4519.62,3924.96,3969.84,4394.16,3628.65
4479.33,4694.55,4140.18,4202.4,4403.34,4696.59,4638.45,3806.13,4437.51,4522.17,3937.71,3983.61,4399.77,3640.89
4474.2300000000005,4692.0,4133.04,4201.38,4402.32,4699.14,4645.08,3806.13,4437.51,4521.66,3932.1,3980.04,4400.79,3636.3
4466.07,4693.53,4128.96,4200.87,4407.93,4698.63,4651.2,3806.13,4438.02,4521.66,3926.4900000000002,3973.92,4399.77,3632.2200000000003
4476.78,4697.1,4138.14,4199.85,4405.89,4697.1,4644.06,3804.09,4435.9800000000005,4521.15,3935.67,3979.53,4403.34,3647.52
4465.56,4692.0,4126.92,4197.3,4405.89,4704.24,4649.16,3805.11,4434.45,4518.6,3929.04,3968.82,4397.22,3634.77
4477.29,4694.55,4139.67,4201.89,4403.34,4696.59,4642.53,3804.09,4439.55,4522.68,3937.71,3979.53,4401.3,3641.4
4476.78,4693.02,4139.16,4201.89,4408.95,4698.63,4646.61,3806.13,4441.08,4524.72,3932.61,3975.4500000000003,4399.77,3637.32
