F3,FC5,AF3,F7,T7,P7,O1,O2,P8,T8,F8,AF4,FC6,F4
2288.88,2393.1801,2107.8504,2135.6811,2248.5645,2401.2432,2369.7711,1940.6061000000002,2259.7488000000003,2307.3471,2006.4114,2028.78,2252.9862,1820.9601000000002
2289.6603,2393.1801,2107.0701000000004,2133.6003,2247.5241,2401.5033,2367.6902999999998,1940.346,2261.5695,2307.087,2006.4114,2029.3002000000001,2255.5872000000004,1822.5207
2289.1401,2395.0008,2107.3302000000003,2133.6003,2248.5645,2402.0235000000002,2367.6902999999998,1939.8258,2261.8296,2307.6072000000004,2005.8912,2027.4795000000001,2255.3271,1823.5611000000001
2289.1401,2393.4402000000005,2108.8908,2136.4614,2248.8246,2402.5437,2369.2509,1939.5657,2260.5290999999997,2308.1274,2005.371,2028.5199000000002,2253.5064,1822.7808
2291.481,2391.6195,2108.3706,2137.2417,2247.2639999999997,2401.2432,2368.7307,1940.6061000000002,2260.7892,2308.6476000000002,2004.8508,2029.5603,2252.7261,1823.301
2292.0012,2394.7407,2105.5095,2138.8023000000003,2248.5645,2401.2432,2369.2509,1940.0859,2262.0897,2309.4279,2003.5503,2027.4795000000001,2252.7261,1822.7808
2291.7410999999997,2396.0412,2106.5499,2138.8023000000003,2247.5241,2400.2028,2368.2105,1940.0859,2262.3498000000004,2309.1677999999997,2006.1513,2027.7396,2253.2463000000002,1823.0409000000002
2291.2209000000003,2393.4402000000005,2107.3302000000003,2138.022,2247.2639999999997,2400.4629,2368.2105,1940.346,2261.3094,2308.6476000000002,2006.4114,2027.4795000000001,2252.4660000000003,1823.0409000000002
2290.7007,2392.92,2106.0297,2138.022,2248.3044000000004,2401.2432,2369.2509,1938.7854,2261.5695,2309.1677999999997,2005.1109000000001,2027.2194,2251.9458,1822.5207
2291.2209000000003,2393.7003,2106.0297,2135.6811,2247.5241,2400.9831000000004,2368.7307,1938.7854,2263.1301000000003,2309.1677999999997,2005.8912,2029.0401000000002,2253.2463000000002,1822.0005
2289.4002,2393.9604,2106.5499,2134.9008,2248.0443,2402.0235000000002,2369.5110000000004,1940.346,2262.3498000000004,2308.3875,2004.8508,2029.8204,2252.7261,1820.9601000000002
2287.8396000000002,2392.92,2107.5903,2134.9008,2249.0847000000003,2402.2835999999998,2369.2509,1940.6061000000002,2261.8296,2308.6476000000002,2005.371,2029.3002000000001,2254.0266,1822.2606
2290.4406000000004,2393.1801,2106.0297,2134.3806000000004,2248.8246,2403.0639,2369.2509,1939.8258,2262.3498000000004,2307.3471,2005.1109000000001,2027.7396,2254.8069000000005,1822.7808
2290.9608,2394.4806000000003,2106.0297,2135.1609000000003,2248.5645,2403.0639,2369.7711,1940.0859,2261.0493,2306.0466,2004.8508,2027.4795000000001,2252.7261,1822.0005
2289.4002,2393.1801,2108.3706,2135.4210000000003,2247.7842,2400.9831000000004,2368.7307,1940.346,2261.8296,2307.8673000000003,2006.6715000000002,2029.0401000000002,2254.2867,1823.5611000000001
2290.1805,2392.92,2107.3302000000003,2137.5018,2247.7842,2400.9831000000004,2370.0312,1939.3056,2263.3902000000003,2308.6476000000002,2005.6311,2028.78,2255.067,1823.0409000000002
2292.0012,2394.4806000000003,2107.3302000000003,2138.022,2248.3044000000004,2401.5033,2369.2509,1938.7854,2262.3498000000004,2308.1274,2005.6311,2027.9997,2254.0266,1822.0005
2292.0012,2394.2205000000004,2108.3706,2137.5018,2247.7842,2400.9831000000004,2367.6902999999998,1939.5657,2261.0493,2308.3875,2006.6715000000002,2027.2194,2254.2867,1822.7808
2290.7007,2393.4402000000005,2108.3706,2138.2821,2246.7438,2400.723,2368.9908,1939.5657,2261.3094,2307.6072000000004,2006.4114,2027.4795000000001,2254.0266,1822.2606
2289.9204,2393.4402000000005,2108.3706,2136.7214999999997,2247.7842,2400.723,2367.6902999999998,1940.346,2262.3498000000004,2306.8269000000005,2007.1917,2028.2598,2255.067,1822.5207
2288.88,2393.1801,2105.7696,2135.4210000000003,2248.8246,2401.5033,2367.4302000000002,1941.6465,2261.8296,2308.3875,2005.6311,2028.5199000000002,2255.067,1822.7808
2289.4002,2392.6599,2106.81,2134.9008,2247.0039,2400.9831000000004,2367.9504,1940.6061000000002,2261.0493,2309.688,2005.371,2029.3002000000001,2254.2867,1822.5207
2290.4406000000004,2394.7407,2108.3706,2133.8604,2247.7842,2401.5033,2368.4706,1940.0859,2262.0897,2308.1274,2007.1917,2028.78,2254.0266,1822.5207
2289.4002,2397.0816,2106.5499,2135.1609000000003,2249.8650000000002,2403.324,2369.2509,1940.8662,2262.87,2306.3067,2006.4114,2027.2194,2254.2867,1821.2202
2288.6199,2395.2609,2107.8504,2136.2013,2247.2639999999997,2402.0235000000002,2367.1701000000003,1940.8662,2262.3498000000004,2307.087,2005.6311,2028.5199000000002,2255.3271,1823.0409000000002
2289.4002,2395.2609,2108.6306999999997,2137.5018,2246.7438,2400.723,2368.4706,1940.6061000000002,2261.3094,2308.3875,2005.1109000000001,2027.9997,2254.2867,1823.301
2292.0012,2396.0412,2107.5903,2139.8427,2249.0847000000003,2400.9831000000004,2369.7711,1939.8258,2261.3094,2308.3875,2006.4114,2028.2598,2253.7664999999997,1822.7808
2291.7410999999997,2393.9604,2106.0297,2138.022,2249.3448000000003,2400.4629,2368.7307,1938.7854,2261.5695,2307.8673000000003,2007.4518000000003,2029.0401000000002,2254.0266,1824.0813
2289.4002,2393.7003,2105.2494,2137.2417,2248.5645,2402.0235000000002,2370.0312,1938.0051,2260.269,2307.6072000000004,2005.371,2027.9997,2252.4660000000003,1823.0409000000002
2291.2209000000003,2393.7003,2108.1105000000002,2137.2417,2247.5241,2401.5033,2369.5110000000004,1938.7854,2261.0493,2308.1274,2005.8912,2028.78,2252.9862,1822.7808
2291.7410999999997,2393.7003,2108.6306999999997,2136.4614,2248.3044000000004,2401.2432,2368.2105,1940.346,2262.0897,2308.6476000000002,2005.1109000000001,2028.2598,2254.0266,1822.7808
2289.6603,2395.0008,2107.5903,2136.7214999999997,2249.0847000000003,2402.8038,2369.2509,1940.0859,2261.3094,2307.8673000000003,2004.5907000000002,2028.2598,2253.5064,1822.5207
2290.4406000000004,2394.7407,2107.8504,2135.9412,2248.0443,2402.2835999999998,2368.9908,1940.6061000000002,2260.7892,2307.3471,2006.9316,2029.0401000000002,2254.0266,1822.5207
2291.7410999999997,2394.7407,2107.3302000000003,2135.6811,2248.0443,2401.7634000000003,2367.6902999999998,1941.9066,2262.0897,2307.8673000000003,2006.4114,2027.7396,2254.2867,1821.7404
2291.481,2395.521,2107.5903,2135.4210000000003,2248.3044000000004,2402.0235000000002,2367.1701000000003,1941.3863999999999,2262.6099,2308.1274,2007.1917,2027.7396,2255.3271,1823.8211999999999
2290.1805,2394.7407,2108.3706,2135.1609000000003,2247.7842,2400.723,2369.7711,1940.6061000000002,2261.0493,2306.5668,2006.6715000000002,2027.7396,2254.5468,1824.8616
2290.1805,2393.7003,2107.3302000000003,2137.2417,2248.8246,2398.6422000000002,2370.2913000000003,1940.346,2261.3094,2307.087,2005.371,2027.9997,2254.2867,1823.0409000000002
2292.2613,2394.4806000000003,2106.81,2136.4614,2249.0847000000003,2400.2028,2367.4302000000002,1940.8662,2262.87,2309.4279,2006.6715000000002,2029.0401000000002,2254.8069000000005,1823.0409000000002
2291.7410999999997,2394.7407,2106.0297,2135.9412,2248.5645,2403.5841,2369.5110000000004,1940.0859,2262.87,2308.6476000000002,2005.6311,2027.7396,2251.4256,1823.8211999999999
2289.4002,2392.6599,2106.81,2136.2013,2247.5241,2401.5033,2370.8115,1938.0051,2261.8296,2308.3875,2005.371,2027.2194,2251.1655,1824.3414
2289.4002,2391.8796,2107.3302000000003,2135.9412,2248.0443,2399.9427,2368.7307,1939.0455000000002,2262.3498000000004,2309.4279,2006.4114,2028.5199000000002,2254.0266,1823.8211999999999
2289.6603,2393.7003,2106.5499,2136.9816,2249.3448000000003,2403.0639,2368.2105,1940.6061000000002,2261.8296,2308.1274,2006.4114,2027.4795000000001,2253.5064,1822.0005
2289.1401,2392.6599,2107.8504,2136.4614,2248.8246,2402.8038,2369.2509,1940.6061000000002,2261.0493,2307.3471,2006.9316,2027.2194,2252.9862,1822.2606
2289.6603,2392.6599,2107.8504,2135.9412,2248.8246,2401.2432,2370.2913000000003,1939.8258,2261.8296,2308.1274,2005.8912,2027.4795000000001,2254.2867,1822.5207
,,,,,,,,,,,,,
2288.6199,2393.1801,2108.1105000000002,2136.2013,2249.0847000000003,2399.9427,2367.4302000000002,1942.6869000000002,2261.5695,2308.6476000000002,2005.371,2027.7396,2255.5872000000004,1824.6015
2287.5795,2391.6195,2107.3302000000003,2136.9816,2248.0443,2401.2432,2369.2509,1940.0859,2261.0493,2309.1677999999997,2004.3306,2027.4795000000001,2254.0266,1822.5207
2291.2209000000003,2392.92,2108.3706,2134.6407,2248.0443,2400.723,2367.9504,1937.4849000000002,2263.6503,2309.1677999999997,2005.6311,2027.4795000000001,2254.0266,1823.301
2292.2613,2393.9604,2107.0701000000004,2134.1205,2249.0847000000003,2401.5033,2368.4706,1939.3056,2264.1705,2308.6476000000002,2006.4114,2026.179,2253.2463000000002,1823.8211999999999
2290.1805,2393.4402000000005,2106.0297,2135.1609000000003,2248.3044000000004,2402.2835999999998,2369.5110000000004,1940.0859,2261.3094,2308.3875,2007.7119,2027.9997,2252.7261,1822.5207
2291.7410999999997,2393.7003,2107.0701000000004,2134.3806000000004,2247.2639999999997,2401.5033,2368.4706,1938.7854,2261.8296,2308.6476000000002,2007.4518000000003,2029.3002000000001,2252.9862,1823.5611000000001
2292.0012,2394.7407,2107.0701000000004,2136.2013,2249.3448000000003,2402.8038,2369.7711,1939.8258,2262.3498000000004,2308.3875,2004.5907000000002,2027.7396,2252.9862,1823.5611000000001
2290.4406000000004,2393.7003,2108.1105000000002,2137.2417,2248.5645,2402.2835999999998,2368.9908,1941.9066,2261.0493,2308.3875,2006.9316,2027.9997,2254.2867,1823.301
2291.2209000000003,2393.7003,2107.5903,2136.4614,2246.7438,2400.9831000000004,2368.9908,1942.1667,2260.7892,2308.9077,2007.1917,2025.9189,2253.5064,1822.2606
2291.481,2393.4402000000005,2107.3302000000003,2136.2013,2248.3044000000004,2401.5033,2370.2913000000003,1941.6465,2261.3094,2307.6072000000004,2004.0705,2025.3987,2253.2463000000002,1822.2606
2289.9204,2391.6195,2108.3706,2134.3806000000004,2249.6049,2401.5033,2368.2105,1942.1667,2260.269,2306.5668,2004.8508,2028.5199000000002,2255.3271,1824.0813
2290.1805,2393.1801,2106.81,2136.4614,2249.3448000000003,2401.5033,2368.9908,1941.3863999999999,2260.5290999999997,2307.8673000000003,2005.8912,2027.7396,2254.5468,1822.7808
2291.7410999999997,2395.0008,2107.8504,2139.3225,2248.5645,2401.5033,2368.9908,1938.7854,2263.3902000000003,2308.9077,2006.1513,2026.9593000000002,2253.7664999999997,1822.0005
2291.2209000000003,2393.9604,2108.6306999999997,2136.2013,2249.3448000000003,2401.7634000000003,2367.6902999999998,1938.2652,2263.6503,2308.1274,2005.6311,2029.3002000000001,2253.7664999999997,1823.5611000000001
2290.9608,2393.7003,2106.0297,2134.6407,2249.6049,2400.723,2368.9908,1939.3056,2261.3094,2307.6072000000004,2005.1109000000001,2030.0805,2253.5064,1822.7808
2293.0416,2394.2205000000004,2104.4691,2135.4210000000003,2247.5241,2400.723,2368.4706,1939.3056,2262.3498000000004,2307.087,2006.6715000000002,2027.9997,2254.5468,1821.7404
2291.7410999999997,2395.0008,2105.2494,2135.9412,2247.7842,2402.0235000000002,2368.2105,1938.7854,2263.9104,2307.3471,2005.6311,2027.7396,2253.7664999999997,1822.2606
2289.9204,2394.4806000000003,2107.5903,2135.9412,2249.3448000000003,2401.2432,2368.9908,1939.5657,2261.0493,2308.1274,2006.9316,2029.3002000000001,2253.2463000000002,1823.5611000000001
2291.481,2392.3998,2107.5903,2135.9412,2248.8246,2400.9831000000004,2370.2913000000003,1941.6465,2259.7488000000003,2308.1274,2007.4518000000003,2026.6992,2255.5872000000004,1822.5207
2290.9608,2392.6599,2107.3302000000003,2136.7214999999997,2248.0443,2403.0639,2370.2913000000003,1941.6465,2262.0897,2307.8673000000003,2005.1109000000001,2024.3583,2255.3271,1820.7
2289.1401,2392.6599,2108.8908,2134.9008,2248.0443,2402.0235000000002,2367.9504,1940.346,2262.6099,2308.6476000000002,2006.4114,2027.2194,2254.0266,1822.2606
2289.1401,2391.8796,2107.8504,2135.9412,2248.3044000000004,2400.9831000000004,2369.2509,1940.346,2261.8296,2308.1274,2006.1513,2027.7396,2254.2867,1823.301
2290.4406000000004,2392.92,2106.5499,2137.5018,2247.0039,2400.9831000000004,2368.9908,1940.0859,2262.87,2307.087,2005.6311,2026.6992,2254.0266,1822.7808
2291.481,2394.4806000000003,2107.0701000000004,2134.9008,2247.2639999999997,2401.5033,2367.1701000000003,1939.0455000000002,2264.1705,2307.087,2007.1917,2027.2194,2252.9862,1822.5207
2290.9608,2395.0008,2107.3302000000003,2135.1609000000003,2249.0847000000003,2401.5033,2368.9908,1938.5253000000002,2262.87,2308.3875,2006.9316,2027.9997,2251.9458,1821.7404
2292.2613,2395.0008,2108.1105000000002,2136.7214999999997,2248.5645,2400.9831000000004,2370.0312,1939.8258,2262.0897,2309.4279,2006.4114,2029.3002000000001,2253.5064,1823.5611000000001
2292.0012,2396.3013,2106.5499,2136.2013,2248.3044000000004,2402.8038,2370.0312,1940.8662,2262.3498000000004,2307.8673000000003,2006.4114,2028.5199000000002,2254.0266,1823.8211999999999
2290.9608,2395.7810999999997,2106.5499,2134.9008,2248.5645,2402.8038,2368.9908,1940.346,2262.0897,2306.5668,2006.6715000000002,2027.9997,2254.0266,1822.2606
2291.2209000000003,2393.4402000000005,2108.1105000000002,2135.6811,2247.2639999999997,2401.2432,2368.4706,1941.6465,2262.0897,2308.3875,2006.1513,2027.9997,2255.067,1822.2606
2290.4406000000004,2392.6599,2107.5903,2138.022,2246.7438,2401.7634000000003,2370.2913000000003,1941.1263000000001,2262.0897,2308.3875,2004.5907000000002,2027.2194,2254.0266,1820.7
2289.9204,2391.3594000000003,2108.6306999999997,2136.7214999999997,2247.2639999999997,2401.2432,2369.5110000000004,1939.5657,2261.8296,2307.3471,2005.6311,2027.4795000000001,2254.0266,1821.4803000000002
2289.4002,2391.6195,2108.6306999999997,2135.9412,2248.5645,2400.723,2368.2105,1940.346,2261.8296,2307.6072000000004,2005.371,2027.7396,2254.0266,1823.0409000000002
2289.6603,2393.7003,2107.0701000000004,2139.3225,2249.0847000000003,2402.2835999999998,2368.7307,1942.1667,2262.3498000000004,2308.1274,2004.0705,2028.5199000000002,2253.2463000000002,1822.2606
2290.4406000000004,2393.4402000000005,2107.3302000000003,2138.2821,2247.7842,2402.0235000000002,2368.2105,1940.8662,2262.0897,2308.9077,2006.1513,2029.0401000000002,2253.7664999999997,1822.7808
2289.6603,2394.4806000000003,2107.0701000000004,2135.6811,2248.3044000000004,2402.0235000000002,2368.7307,1937.2248,2261.5695,2309.688,2005.6311,2027.9997,2253.5064,1823.301
2290.4406000000004,2395.2609,2107.8504,2135.1609000000003,2249.0847000000003,2401.2432,2367.9504,1938.2652,2262.0897,2309.4279,2005.371,2028.5199000000002,2254.0266,1823.0409000000002
2291.2209000000003,2394.4806000000003,2108.1105000000002,2134.6407,2248.3044000000004,2400.4629,2367.6902999999998,1941.3863999999999,2262.3498000000004,2308.6476000000002,2006.1513,2027.9997,2253.2463000000002,1823.0409000000002
2290.4406000000004,2394.4806000000003,2107.8504,2134.3806000000004,2247.2639999999997,2401.7634000000003,2369.5110000000004,1940.346,2261.5695,2307.3471,2006.6715000000002,2026.9593000000002,2252.7261,1823.8211999999999
2289.6603,2394.7407,2108.6306999999997,2134.3806000000004,2247.5241,2401.7634000000003,2368.9908,1939.0455000000002,2262.0897,2307.087,2007.4518000000003,2027.9997,2254.2867,1824.3414
2289.6603,2394.2205000000004,2107.0701000000004,2137.5018,2248.0443,2401.2432,2368.4706,1940.8662,2262.3498000000004,2307.8673000000003,2005.6311,2027.4795000000001,2253.7664999999997,1822.0005
2290.7007,2393.1801,2107.0701000000004,2137.2417,2247.0039,2400.2028,2368.4706,1940.6061000000002,2262.3498000000004,2309.1677999999997,2005.371,2027.4795000000001,2252.9862,1822.5207
2291.481,2392.6599,2107.5903,2135.4210000000003,2247.0039,2400.2028,2368.7307,1939.5657,2262.3498000000004,2309.9481,2006.1513,2028.78,2253.7664999999997,1824.3414
2290.7007,2392.6599,2107.0701000000004,2138.022,2248.5645,2402.0235000000002,2369.5110000000004,1940.6061000000002,2262.0897,2308.6476000000002,2005.371,2027.9997,2253.7664999999997,1823.0409000000002
2290.9608,2392.92,2107.5903,2136.9816,2248.3044000000004,2401.2432,2367.6902999999998,1940.6061000000002,2262.3498000000004,2307.6072000000004,2007.1917,2027.7396,2253.5064,1823.301
2290.1805,2395.521,2106.0297,2133.8604,2248.0443,2400.723,2368.7307,1940.0859,2262.0897,2308.6476000000002,2007.1917,2028.5199000000002,2253.2463000000002,1822.7808
2288.3598,2396.0412,2106.2898000000005,2135.4210000000003,2249.0847000000003,2401.2432,2370.2913000000003,1941.1263000000001,2261.8296,2308.1274,2006.4114,2030.0805,2253.2463000000002,1822.0005
2290.1805,2393.4402000000005,2108.1105000000002,2135.9412,2249.0847000000003,2400.9831000000004,2368.7307,1941.3863999999999,2261.8296,2307.087,2006.9316,2029.0401000000002,2253.7664999999997,1823.5611000000001
2290.9608,2392.6599,2106.81,2135.9412,2249.3448000000003,2402.0235000000002,2368.7307,1939.3056,2261.8296,2308.1274,2005.1109000000001,2025.6588000000002,2253.2463000000002,1822.7808
2290.9608,2393.1801,2108.1105000000002,2134.6407,2249.0847000000003,2401.5033,2367.9504,1939.5657,2261.8296,2308.9077,2005.8912,2027.4795000000001,2253.2463000000002,1822.0005
2291.2209000000003,2393.4402000000005,2108.3706,2136.2013,2250.1251,2400.723,2368.4706,1941.3863999999999,2261.0493,2307.6072000000004,2006.1513,2028.78,2253.5064,1823.0409000000002
2290.4406000000004,2392.92,2106.2898000000005,2139.5826,2250.6453,2401.2432,2370.0312,1939.5657,2260.5290999999997,2307.6072000000004,2005.371,2026.179,2253.5064,1823.0409000000002
2290.9608,2392.6599,2107.5903,2137.7619000000004,2248.3044000000004,2401.2432,2369.5110000000004,1938.5253000000002,2262.0897,2308.1274,2006.4114,2025.9189,2253.2463000000002,1822.7808
2291.481,2394.2205000000004,2109.9312,2136.9816,2247.7842,2402.0235000000002,2370.0312,1938.7854,2262.3498000000004,2307.6072000000004,2006.4114,2027.7396,2254.0266,1821.2202
2290.9608,2394.2205000000004,2108.6306999999997,2138.8023000000003,2249.0847000000003,2400.9831000000004,2368.9908,1939.5657,2260.269,2307.8673000000003,2007.7119,2029.3002000000001,2255.5872000000004,1822.7808
2290.7007,2394.7407,2106.0297,2136.4614,2249.3448000000003,2401.2432,2369.2509,1940.8662,2261.0493,2309.1677999999997,2006.4114,2028.5199000000002,2253.7664999999997,1825.3817999999999
2290.4406000000004,2396.8215,2107.8504,2132.5598999999997,2248.5645,2402.8038,2370.2913000000003,1939.8258,2262.6099,2309.4279,2004.8508,2027.7396,2252.9862,1824.3414
2289.4002,2395.521,2110.1913,2132.2998000000002,2247.5241,2400.9831000000004,2368.4706,1939.5657,2262.0897,2308.6476000000002,2006.4114,2028.2598,2255.8473000000004,1824.0813
2289.9204,2392.92,2106.81,2134.9008,2248.3044000000004,2400.723,2367.9504,1940.0859,2261.3094,2307.087,2005.371,2027.7396,2253.5064,1824.0813
2291.481,2392.1397,2106.5499,2135.9412,2248.3044000000004,2401.7634000000003,2368.7307,1939.5657,2261.8296,2307.3471,2005.6311,2027.7396,2251.6857,1823.5611000000001
2290.9608,2392.3998,2108.8908,2136.2013,2248.3044000000004,2401.7634000000003,2370.5514000000003,1940.0859,2262.0897,2308.6476000000002,2007.1917,2028.2598,2254.8069000000005,1822.7808
2289.9204,2393.1801,2108.3706,2138.5422000000003,2249.3448000000003,2401.2432,2371.0715999999998,1940.6061000000002,2261.8296,2308.3875,2005.8912,2028.5199000000002,2255.067,1823.301
2291.2209000000003,2394.2205000000004,2106.81,2138.5422000000003,2247.7842,2398.9023,2368.7307,1940.0859,2261.5695,2307.8673000000003,2005.8912,2028.5199000000002,2254.5468,1824.6015
2291.7410999999997,2394.7407,2106.2898000000005,2138.022,2248.3044000000004,2399.1623999999997,2370.0312,1939.8258,2260.7892,2308.1274,2005.6311,2027.7396,2254.0266,1822.5207
2291.481,2393.9604,2108.8908,2137.7619000000004,2248.5645,2400.2028,2370.0312,1939.3056,2261.3094,2308.3875,2005.8912,2028.5199000000002,2253.7664999999997,1822.5207
2292.2613,2392.92,2109.411,2136.4614,2247.0039,2400.9831000000004,2368.7307,1939.8258,2262.0897,2308.3875,2006.4114,2028.2598,2254.0266,1824.6015
2290.1805,2393.7003,2107.8504,2136.4614,2247.2639999999997,2402.0235000000002,2369.7711,1940.0859,2261.0493,2308.9077,2005.371,2027.9997,2253.7664999999997,1823.0409000000002
2288.88,2393.9604,2109.9312,2133.0801,2247.5241,2401.5033,2368.7307,1940.0859,2261.0493,2309.688,2005.371,2029.3002000000001,2254.5468,1822.2606
2290.1805,2393.1801,2108.8908,2132.2998000000002,2248.5645,2401.7634000000003,2369.5110000000004,1940.6061000000002,2262.6099,2308.1274,2004.3306,2028.2598,2254.0266,1822.0005
2291.481,2393.4402000000005,2108.3706,2135.6811,2249.6049,2401.7634000000003,2368.9908,1940.346,2263.3902000000003,2306.3067,2005.8912,2028.5199000000002,2252.9862,1822.0005
2291.2209000000003,2393.7003,2109.6711,2135.6811,2248.8246,2400.723,2366.91,1940.6061000000002,2262.0897,2307.6072000000004,2008.2321,2030.0805,2254.5468,1824.3414
2290.4406000000004,2393.7003,2107.5903,2136.7214999999997,2247.5241,2400.9831000000004,2369.7711,1941.6465,2260.7892,2309.4279,2005.8912,2028.78,2254.5468,1823.8211999999999
2291.2209000000003,2393.4402000000005,2107.3302000000003,2138.5422000000003,2248.3044000000004,2399.6826,2370.5514000000003,1940.6061000000002,2261.3094,2309.1677999999997,2006.6715000000002,2028.5199000000002,2254.5468,1822.5207
2290.9608,2393.4402000000005,2107.8504,2138.022,2249.3448000000003,2399.6826,2368.4706,1940.0859,2262.3498000000004,2308.9077,2007.4518000000003,2028.2598,2254.2867,1822.7808
2290.1805,2392.92,2107.8504,2136.4614,2247.5241,2399.9427,2368.9908,1940.6061000000002,2261.5695,2310.2082,2006.1513,2027.4795000000001,2254.0266,1824.0813
2290.4406000000004,2392.92,2108.3706,2135.6811,2246.4836999999998,2400.2028,2368.9908,1940.0859,2262.0897,2309.688,2006.9316,2027.9997,2254.5468,1824.3414
2288.88,2395.0008,2107.3302000000003,2136.7214999999997,2248.0443,2401.7634000000003,2367.6902999999998,1939.3056,2263.6503,2307.6072000000004,2006.6715000000002,2027.4795000000001,2254.2867,1822.2606
2290.4406000000004,2395.0008,2107.3302000000003,2135.6811,2248.3044000000004,2401.5033,2366.3898000000004,1942.1667,2263.6503,2306.5668,2006.6715000000002,2028.5199000000002,2254.8069000000005,1823.8211999999999
2292.5214,2393.1801,2107.3302000000003,2133.8604,2247.7842,2401.7634000000003,2368.2105,1943.9874000000002,2262.3498000000004,2305.7864999999997,2006.1513,2029.3002000000001,2254.8069000000005,1825.1217000000001
2290.9608,2393.4402000000005,2107.8504,2135.6811,2247.7842,2402.2835999999998,2369.7711,1941.1263000000001,2262.6099,2306.0466,2006.1513,2029.0401000000002,2254.5468,1823.301
2290.9608,2393.7003,2108.3706,2135.6811,2247.5241,2401.7634000000003,2366.91,1940.346,2263.3902000000003,2307.8673000000003,2008.4922000000001,2030.0805,2255.067,1824.0813
2290.7007,2393.7003,2106.5499,2136.2013,2248.5645,2403.0639,2367.6902999999998,1942.4268000000002,2262.87,2308.1274,2007.4518000000003,2029.3002000000001,2254.5468,1823.5611000000001
2290.4406000000004,2393.4402000000005,2107.8504,2137.7619000000004,2248.5645,2401.5033,2370.0312,1940.6061000000002,2262.0897,2307.6072000000004,2006.6715000000002,2028.5199000000002,2254.0266,1822.0005
2292.2613,2392.6599,2107.5903,2137.7619000000004,2247.2639999999997,2399.6826,2369.7711,1938.5253000000002,2261.8296,2308.6476000000002,2006.4114,2027.4795000000001,2253.5064,1822.2606
2290.9608,2392.6599,2103.9489000000003,2137.7619000000004,2248.5645,2401.5033,2370.5514000000003,1939.0455000000002,2260.7892,2309.688,2003.8104,2025.3987,2252.4660000000003,1822.2606
2288.0997,2393.1801,2104.7292,2136.4614,2249.3448000000003,2402.0235000000002,2370.8115,1938.5253000000002,2261.0493,2309.4279,2003.8104,2025.6588000000002,2252.9862,1822.7808
2288.88,2394.4806000000003,2107.3302000000003,2136.2013,2247.7842,2400.4629,2370.0312,1938.5253000000002,2262.3498000000004,2308.6476000000002,2004.3306,2027.7396,2252.4660000000003,1822.5207
2292.2613,2393.9604,2108.6306999999997,2136.9816,2246.4836999999998,2399.9427,2367.9504,1940.8662,2262.3498000000004,2307.8673000000003,2006.6715000000002,2029.5603,2253.2463000000002,1823.5611000000001
2292.0012,2392.92,2108.3706,2135.1609000000003,2246.2236,2400.723,2366.6499,1941.6465,2261.8296,2308.3875,2007.9720000000002,2029.3002000000001,2256.3675,1824.8616
2289.6603,2393.7003,2108.6306999999997,2135.4210000000003,2247.0039,2402.0235000000002,2367.1701000000003,1940.6061000000002,2262.3498000000004,2308.9077,2005.6311,2028.5199000000002,2255.067,1823.301
2290.9608,2394.4806000000003,2110.4514000000004,2136.2013,2248.5645,2400.723,2366.1297,1941.6465,2262.0897,2308.3875,2006.9316,2029.5603,2254.2867,1824.6015
2291.481,2394.7407,2108.6306999999997,2136.2013,2249.0847000000003,2400.2028,2367.9504,1942.4268000000002,2261.0493,2307.6072000000004,2007.9720000000002,2028.2598,2255.5872000000004,1825.6419
2290.4406000000004,2394.2205000000004,2107.5903,2136.4614,2247.7842,2401.2432,2369.5110000000004,1941.1263000000001,2261.0493,2308.6476000000002,2007.1917,2027.9997,2253.7664999999997,1824.6015
2291.481,2393.1801,2108.1105000000002,2136.9816,2247.7842,2399.6826,2367.1701000000003,1940.0859,2262.0897,2309.4279,2007.4518000000003,2029.5603,2251.6857,1823.5611000000001
2291.2209000000003,2393.4402000000005,2106.0297,2138.8023000000003,2250.1251,2399.9427,2368.2105,1940.0859,2261.3094,2307.8673000000003,2006.4114,2027.4795000000001,2252.4660000000003,1823.301
2289.9204,2393.7003,2107.0701000000004,2136.4614,2248.5645,2401.2432,2368.9908,1940.346,2260.5290999999997,2306.8269000000005,2006.4114,2027.4795000000001,2254.2867,1824.8616
2289.6603,2392.92,2107.3302000000003,2134.6407,2245.9635000000003,2400.9831000000004,2369.7711,1940.0859,2262.0897,2308.3875,2006.4114,2028.2598,2252.7261,1823.8211999999999
2289.6603,2393.7003,2104.9893,2136.7214999999997,2247.7842,2400.9831000000004,2370.0312,1940.8662,2262.87,2309.1677999999997,2005.371,2027.7396,2252.2059,1822.0005
2288.88,2393.7003,2106.0297,2134.9008,2249.8650000000002,2402.8038,2369.7711,1942.4268000000002,2262.3498000000004,2308.1274,2005.8912,2026.6992,2253.5064,1822.5207
2287.8396000000002,2393.1801,2107.0701000000004,2134.1205,2249.3448000000003,2404.3644000000004,2370.5514000000003,1941.6465,2261.3094,2307.3471,2004.5907000000002,2025.6588000000002,2252.4660000000003,1821.7404
2288.88,2394.2205000000004,2108.1105000000002,2135.9412,2247.5241,2402.0235000000002,2369.5110000000004,1941.3863999999999,2261.8296,2308.1274,2004.3306,2027.4795000000001,2254.0266,1821.4803000000002
2290.7007,2394.2205000000004,2108.1105000000002,2135.1609000000003,2249.0847000000003,2400.9831000000004,2370.0312,1943.2071,2262.6099,2308.1274,2003.2902,2027.9997,2255.5872000000004,1820.9601000000002
2289.6603,2393.7003,2107.0701000000004,2135.4210000000003,2250.9054,2402.2835999999998,2370.8115,1940.8662,2261.5695,2307.8673000000003,2003.8104,2026.6992,2253.5064,1819.9197000000001
2289.4002,2393.1801,2107.0701000000004,2135.9412,2247.5241,2401.7634000000003,2369.5110000000004,1936.9647000000002,2261.8296,2308.3875,2006.9316,2027.7396,2252.4660000000003,1822.0005
2289.6603,2393.1801,2105.2494,2136.9816,2246.4836999999998,2401.7634000000003,2370.5514000000003,1937.4849000000002,2262.6099,2308.3875,2005.1109000000001,2027.9997,2252.4660000000003,1822.5207
2289.6603,2392.6599,2104.7292,2136.7214999999997,2248.8246,2401.7634000000003,2371.3317,1938.0051,2262.0897,2307.3471,2004.5907000000002,2027.4795000000001,2252.9862,1822.0005
2289.9204,2393.7003,2105.2494,2135.9412,2249.0847000000003,2401.2432,2371.3317,1938.0051,2261.3094,2307.6072000000004,2006.9316,2026.9593000000002,2253.7664999999997,1822.0005
2289.1401,2394.4806000000003,2106.5499,2136.9816,2248.3044000000004,2402.0235000000002,2371.0715999999998,1940.346,2261.5695,2308.3875,2006.9316,2028.2598,2253.2463000000002,1821.4803000000002
2289.6603,2392.6599,2109.1509,2134.9008,2247.5241,2401.7634000000003,2367.9504,1941.6465,2262.6099,2308.9077,2006.1513,2028.78,2254.5468,1823.0409000000002
2290.9608,2392.1397,2109.1509,2133.6003,2248.3044000000004,2402.0235000000002,2368.2105,1941.1263000000001,2262.3498000000004,2308.6476000000002,2005.1109000000001,2026.9593000000002,2254.8069000000005,1823.8211999999999
2290.4406000000004,2392.92,2108.8908,2135.4210000000003,2247.7842,2401.5033,2369.2509,1941.9066,2261.5695,2307.6072000000004,2006.4114,2027.9997,2253.7664999999997,1823.301
2289.9204,2393.4402000000005,2108.8908,2135.1609000000003,2247.2639999999997,2400.9831000000004,2368.7307,1942.4268000000002,2261.8296,2306.8269000000005,2007.1917,2029.0401000000002,2254.0266,1824.0813
2291.2209000000003,2394.4806000000003,2107.8504,2136.4614,2248.5645,2401.5033,2368.2105,1939.8258,2262.87,2307.8673000000003,2005.371,2026.9593000000002,2254.0266,1824.0813
2292.5214,2395.0008,2108.8908,2136.9816,2248.0443,2400.723,2367.9504,1938.7854,2261.8296,2308.9077,2005.371,2026.9593000000002,2254.8069000000005,1824.0813
2291.2209000000003,2394.7407,2107.3302000000003,2135.9412,2247.7842,2400.2028,2368.9908,1939.8258,2260.7892,2307.8673000000003,2005.6311,2028.5199000000002,2253.5064,1824.6015
2291.7410999999997,2394.2205000000004,2106.81,2136.2013,2248.0443,2400.4629,2368.7307,1939.5657,2261.8296,2306.8269000000005,2007.1917,2030.3406,2252.7261,1823.8211999999999
2294.6022000000003,2394.2205000000004,2108.1105000000002,2137.2417,2247.2639999999997,2400.2028,2367.1701000000003,1939.0455000000002,2261.5695,2308.1274,2007.4518000000003,2029.0401000000002,2254.0266,1823.5611000000001
2293.5618000000004,2396.0412,2107.8504,2137.2417,2248.0443,2399.6826,2368.7307,1939.3056,2261.0493,2308.6476000000002,2005.1109000000001,2026.9593000000002,2252.9862,1823.301
2290.1805,2394.4806000000003,2107.8504,2134.9008,2248.3044000000004,2399.6826,2368.4706,1940.0859,2261.8296,2308.9077,2006.6715000000002,2027.9997,2252.4660000000003,1823.301
2289.9204,2391.6195,2107.5903,2135.9412,2247.7842,2401.7634000000003,2368.4706,1940.8662,2261.0493,2308.3875,2006.1513,2027.2194,2254.0266,1823.5611000000001
2292.2613,2392.3998,2108.1105000000002,2137.2417,2247.7842,2402.0235000000002,2369.5110000000004,1940.0859,2259.7488000000003,2307.087,2004.0705,2025.6588000000002,2253.7664999999997,1824.3414
2291.481,2392.1397,2108.6306999999997,2134.1205,2248.5645,2400.9831000000004,2369.5110000000004,1940.0859,2261.5695,2307.3471,2005.371,2026.6992,2253.7664999999997,1824.0813
2288.6199,2391.8796,2107.0701000000004,2135.6811,2248.5645,2402.0235000000002,2369.7711,1940.6061000000002,2261.8296,2307.6072000000004,2004.8508,2026.6992,2255.3271,1822.0005
2290.7007,2393.7003,2108.1105000000002,2137.7619000000004,2247.5241,2401.5033,2368.4706,1940.346,2260.269,2307.8673000000003,2005.1109000000001,2026.6992,2255.3271,1823.301
2292.2613,2394.4806000000003,2107.3302000000003,2134.3806000000004,2248.3044000000004,2402.0235000000002,2369.2509,1939.3056,2261.5695,2308.1274,2005.371,2026.6992,2251.9458,1823.8211999999999
2289.4002,2393.9604,2106.5499,2132.5598999999997,2248.8246,2403.0639,2371.3317,1938.5253000000002,2262.87,2307.8673000000003,2004.8508,2027.9997,2251.6857,1821.7404
2289.6603,2392.92,2107.0701000000004,2133.8604,2248.0443,2401.5033,2370.0312,1939.8258,2262.0897,2307.087,2006.4114,2029.0401000000002,2255.067,1821.7404
2291.2209000000003,2393.9604,2105.2494,2136.2013,2248.3044000000004,2401.5033,2370.2913000000003,1941.3863999999999,2261.3094,2307.6072000000004,2006.1513,2027.9997,2253.5064,1822.0005
2290.7007,2396.0412,2105.5095,2135.4210000000003,2248.3044000000004,2401.2432,2369.7711,1940.0859,2261.5695,2308.1274,2005.8912,2028.2598,2252.2059,1823.5611000000001
,,,,,,,,,,,,,
2290.1805,2392.6599,2106.81,2137.2417,2250.1251,2403.0639,2369.7711,1939.8258,2260.7892,2306.3067,2004.3306,2025.1386,2253.5064,1821.7404
2291.481,2391.8796,2108.8908,2138.8023000000003,2248.5645,2401.7634000000003,2369.2509,1940.0859,2261.3094,2309.688,2005.6311,2026.4391,2252.4660000000003,1823.301
2290.1805,2392.3998,2108.8908,2138.022,2248.0443,2401.7634000000003,2368.2105,1939.8258,2263.1301000000003,2309.9481,2005.6311,2026.9593000000002,2253.2463000000002,1822.7808
2290.1805,2391.8796,2107.5903,2138.022,2249.0847000000003,2401.5033,2368.4706,1939.8258,2263.1301000000003,2305.7864999999997,2004.8508,2026.6992,2255.067,1822.2606
2292.5214,2393.7003,2107.0701000000004,2137.7619000000004,2249.0847000000003,2399.9427,2369.7711,1940.6061000000002,2262.0897,2305.5264,2006.1513,2026.9593000000002,2254.5468,1822.7808
2292.0012,2397.0816,2106.5499,2136.9816,2248.5645,2401.5033,2370.0312,1940.0859,2262.3498000000004,2308.3875,2006.4114,2027.4795000000001,2252.9862,1821.4803000000002
2290.1805,2395.2609,2107.0701000000004,2133.0801,2247.0039,2401.5033,2367.1701000000003,1940.0859,2263.3902000000003,2308.3875,2007.4518000000003,2028.2598,2254.2867,1822.0005
2290.4406000000004,2394.4806000000003,2107.3302000000003,2132.5598999999997,2247.2639999999997,2400.4629,2367.6902999999998,1941.3863999999999,2263.3902000000003,2307.087,2005.8912,2027.4795000000001,2255.067,1823.0409000000002
2291.481,2396.0412,2108.8908,2135.4210000000003,2248.3044000000004,2401.2432,2368.7307,1941.6465,2262.0897,2307.6072000000004,2005.1109000000001,2026.9593000000002,2254.0266,1823.301
2289.9204,2393.7003,2109.411,2134.3806000000004,2248.0443,2401.5033,2367.6902999999998,1941.1263000000001,2262.0897,2309.1677999999997,2006.6715000000002,2028.5199000000002,2255.067,1823.0409000000002
2289.1401,2392.92,2107.0701000000004,2135.4210000000003,2248.3044000000004,2400.9831000000004,2369.5110000000004,1940.346,2261.8296,2309.4279,2005.8912,2027.2194,2254.0266,1821.4803000000002
2292.2613,2393.4402000000005,2108.1105000000002,2137.2417,2247.7842,2400.9831000000004,2368.9908,1941.1263000000001,2261.8296,2309.1677999999997,2005.8912,2025.3987,2252.9862,1823.0409000000002
2292.0012,2392.3998,2108.1105000000002,2136.4614,2248.3044000000004,2401.5033,2368.4706,1941.9066,2262.3498000000004,2308.9077,2005.8912,2026.179,2254.8069000000005,1823.8211999999999
2288.6199,2392.6599,2107.0701000000004,2137.5018,2248.8246,2400.4629,2370.0312,1940.6061000000002,2262.6099,2308.3875,2006.1513,2028.2598,2255.8473000000004,1821.7404
2291.2209000000003,2393.4402000000005,2107.5903,2136.9816,2247.5241,2400.2028,2369.2509,1940.346,2262.0897,2307.6072000000004,2007.7119,2028.5199000000002,2255.067,1823.0409000000002
2292.7815,2393.9604,2106.2898000000005,2135.9412,2248.3044000000004,2402.8038,2369.5110000000004,1940.8662,2260.269,2308.3875,2005.1109000000001,2027.2194,2252.4660000000003,1823.8211999999999
2290.4406000000004,2395.0008,2106.5499,2136.2013,2249.6049,2402.8038,2369.2509,1940.0859,2261.0493,2308.6476000000002,2004.3306,2028.2598,2253.5064,1822.7808
2291.2209000000003,2395.2609,2107.3302000000003,2135.6811,2249.3448000000003,2399.9427,2367.9504,1940.0859,2262.6099,2307.087,2005.371,2027.4795000000001,2255.067,1822.7808
2291.7410999999997,2394.7407,2106.2898000000005,2134.3806000000004,2249.0847000000003,2400.4629,2368.2105,1940.8662,2261.8296,2306.5668,2005.371,2025.9189,2253.7664999999997,1823.301
2291.481,2394.2205000000004,2107.8504,2133.0801,2248.5645,2401.2432,2367.6902999999998,1940.0859,2261.8296,2307.087,2005.8912,2029.0401000000002,2252.9862,1823.5611000000001
2291.2209000000003,2393.9604,2108.1105000000002,2134.9008,2248.8246,2401.2432,2368.7307,1940.346,2262.0897,2307.3471,2005.371,2029.3002000000001,2252.9862,1822.5207
2290.7007,2393.4402000000005,2106.5499,2138.8023000000003,2248.8246,2400.4629,2370.0312,1941.1263000000001,2261.5695,2308.6476000000002,2005.8912,2025.9189,2254.5468,1823.0409000000002
2291.481,2392.3998,2106.2898000000005,2138.2821,2248.3044000000004,2400.4629,2369.7711,1941.3863999999999,2260.7892,2309.9481,2005.8912,2024.6184,2254.2867,1823.301
2290.9608,2392.3998,2107.5903,2136.4614,2248.3044000000004,2401.7634000000003,2371.0715999999998,1939.8258,2260.0089000000003,2308.6476000000002,2003.5503,2025.9189,2252.9862,1820.9601000000002
2289.9204,2392.3998,2108.6306999999997,2135.4210000000003,2248.3044000000004,2400.723,2371.8519,1939.0455000000002,2260.269,2307.6072000000004,2005.6311,2027.4795000000001,2254.2867,1822.0005
2289.9204,2392.92,2105.7696,2136.4614,2250.1251,2401.7634000000003,2371.3317,1939.8258,2261.5695,2308.1274,2006.6715000000002,2025.6588000000002,2254.0266,1822.7808
2289.9204,2394.7407,2106.0297,2135.6811,2250.6453,2403.324,2368.4706,1938.7854,2261.0493,2308.6476000000002,2005.6311,2026.6992,2253.2463000000002,1821.4803000000002
2289.4002,2395.521,2109.1509,2132.0397000000003,2248.0443,2402.0235000000002,2368.7307,1939.3056,2260.7892,2308.3875,2006.4114,2029.8204,2254.0266,1822.5207
2290.1805,2395.0008,2106.81,2133.3402,2247.2639999999997,2402.0235000000002,2372.112,1940.346,2261.8296,2307.8673000000003,2005.8912,2028.2598,2252.7261,1821.7404
2291.481,2393.9604,2106.81,2135.9412,2247.7842,2402.2835999999998,2369.2509,1940.0859,2262.87,2308.3875,2005.6311,2026.6992,2253.2463000000002,1822.7808
2290.4406000000004,2394.4806000000003,2108.3706,2135.9412,2248.0443,2402.5437,2368.4706,1940.6061000000002,2262.6099,2307.8673000000003,2006.1513,2026.9593000000002,2254.5468,1823.8211999999999
2290.1805,2394.7407,2108.6306999999997,2138.8023000000003,2247.2639999999997,2401.7634000000003,2370.5514000000003,1941.1263000000001,2261.8296,2306.8269000000005,2006.1513,2027.4795000000001,2252.7261,1822.0005
2292.0012,2393.7003,2108.1105000000002,2140.3629,2247.0039,2399.4225,2368.9908,1940.8662,2261.8296,2307.087,2005.8912,2027.7396,2253.2463000000002,1821.4803000000002
2291.2209000000003,2393.9604,2106.2898000000005,2139.5826,2248.8246,2399.6826,2370.0312,1939.5657,2262.0897,2308.3875,2004.0705,2027.4795000000001,2253.5064,1822.2606
2289.4002,2392.6599,2107.5903,2137.5018,2248.0443,2399.9427,2369.5110000000004,1939.0455000000002,2261.5695,2309.4279,2006.1513,2029.0401000000002,2252.9862,1822.2606
2290.7007,2391.3594000000003,2108.1105000000002,2135.1609000000003,2247.2639999999997,2399.6826,2367.4302000000002,1939.5657,2261.8296,2308.9077,2006.9316,2028.2598,2254.0266,1822.7808
2292.0012,2393.9604,2107.8504,2135.9412,2248.3044000000004,2402.0235000000002,2369.5110000000004,1939.5657,2262.87,2307.6072000000004,2005.6311,2027.4795000000001,2254.8069000000005,1822.5207
2291.7410999999997,2395.0008,2108.1105000000002,2134.9008,2247.7842,2401.5033,2368.9908,1941.1263000000001,2263.1301000000003,2307.3471,2007.1917,2029.3002000000001,2256.3675,1823.0409000000002
2290.7007,2393.7003,2107.0701000000004,2134.6407,2248.3044000000004,2400.4629,2367.6902999999998,1942.4268000000002,2262.6099,2308.3875,2004.8508,2028.5199000000002,2255.067,1822.2606
2290.1805,2393.7003,2107.8504,2135.4210000000003,2248.8246,2400.723,2367.6902999999998,1940.8662,2262.87,2308.3875,2004.3306,2027.9997,2253.2463000000002,1822.7808
2290.9608,2393.4402000000005,2108.6306999999997,2135.1609000000003,2248.3044000000004,2401.7634000000003,2368.4706,1940.6061000000002,2263.3902000000003,2307.087,2007.4518000000003,2027.9997,2254.8069000000005,1823.8211999999999
2291.7410999999997,2393.7003,2108.3706,2137.2417,2248.3044000000004,2401.5033,2368.9908,1941.3863999999999,2262.0897,2307.3471,2007.4518000000003,2027.4795000000001,2255.3271,1823.301
2293.0416,2393.4402000000005,2108.6306999999997,2138.5422000000003,2248.5645,2400.2028,2368.7307,1939.5657,2260.269,2309.4279,2005.8912,2026.9593000000002,2254.0266,1823.5611000000001
2291.2209000000003,2393.7003,2107.0701000000004,2137.7619000000004,2249.6049,2402.0235000000002,2370.2913000000003,1938.2652,2260.5290999999997,2308.6476000000002,2004.5907000000002,2025.3987,2252.4660000000003,1822.2606
2289.6603,2393.4402000000005,2107.8504,2136.4614,2248.8246,2402.2835999999998,2370.0312,1939.8258,2261.5695,2306.5668,2005.8912,2026.6992,2253.5064,1822.5207
2290.9608,2392.92,2108.8908,2136.7214999999997,2247.7842,2400.9831000000004,2369.5110000000004,1940.346,2262.3498000000004,2308.3875,2006.4114,2026.9593000000002,2253.7664999999997,1823.8211999999999
2290.4406000000004,2393.7003,2106.2898000000005,2137.7619000000004,2248.8246,2401.2432,2371.0715999999998,1938.5253000000002,2261.8296,2309.1677999999997,2005.1109000000001,2025.3987,2252.4660000000003,1822.7808
2290.9608,2393.4402000000005,2107.5903,2134.3806000000004,2249.3448000000003,2400.2028,2368.7307,1939.3056,2261.5695,2307.6072000000004,2006.9316,2027.7396,2254.8069000000005,1823.8211999999999
2290.9608,2393.7003,2108.8908,2133.6003,2248.8246,2401.5033,2367.4302000000002,1942.4268000000002,2261.8296,2307.6072000000004,2005.6311,2029.0401000000002,2254.0266,1823.301
2290.4406000000004,2394.4806000000003,2107.5903,2136.4614,2248.3044000000004,2402.2835999999998,2368.9908,1942.1667,2262.6099,2309.1677999999997,2004.3306,2027.7396,2252.4660000000003,1822.2606
2289.9204,2393.7003,2107.3302000000003,2135.6811,2248.0443,2400.723,2368.2105,1941.1263000000001,2263.6503,2309.1677999999997,2005.8912,2028.2598,2254.5468,1823.8211999999999
2289.4002,2393.1801,2107.5903,2136.2013,2248.3044000000004,2401.2432,2368.4706,1941.6465,2262.3498000000004,2308.9077,2005.1109000000001,2028.78,2254.5468,1823.301
2291.481,2393.1801,2108.6306999999997,2138.2821,2248.0443,2400.4629,2368.2105,1941.1263000000001,2261.0493,2308.9077,2006.4114,2029.0401000000002,2253.2463000000002,1822.7808
2291.2209000000003,2394.4806000000003,2107.0701000000004,2139.3225,2248.5645,2399.1623999999997,2369.5110000000004,1939.8258,2262.0897,2307.6072000000004,2006.6715000000002,2027.9997,2252.4660000000003,1823.8211999999999
2289.4002,2394.7407,2104.9893,2138.2821,2249.0847000000003,2400.4629,2370.0312,1938.7854,2261.8296,2307.3471,2004.3306,2026.6992,2252.7261,1823.301
2290.9608,2392.92,2105.5095,2134.1205,2248.0443,2401.2432,2368.9908,1939.3056,2260.7892,2309.1677999999997,2006.1513,2026.9593000000002,2254.0266,1823.0409000000002
2292.2613,2393.4402000000005,2106.5499,2135.4210000000003,2247.2639999999997,2400.723,2369.7711,1938.5253000000002,2261.8296,2309.1677999999997,2006.9316,2027.9997,2253.2463000000002,1823.0409000000002
2292.0012,2393.7003,2108.6306999999997,2136.7214999999997,2247.0039,2399.6826,2369.5110000000004,1939.0455000000002,2262.6099,2308.1274,2006.6715000000002,2029.0401000000002,2253.2463000000002,1823.8211999999999
2291.7410999999997,2393.4402000000005,2108.1105000000002,2134.6407,2247.7842,2401.5033,2368.7307,1941.6465,2261.3094,2307.8673000000003,2007.1917,2027.9997,2253.5064,1823.5611000000001
2290.9608,2393.9604,2106.5499,2135.4210000000003,2248.8246,2403.5841,2369.2509,1942.1667,2260.5290999999997,2307.6072000000004,2007.4518000000003,2027.7396,2252.9862,1822.2606
2290.7007,2393.9604,2108.1105000000002,2135.6811,2247.7842,2400.723,2368.7307,1940.8662,2262.87,2308.1274,2007.4518000000003,2029.5603,2254.8069000000005,1824.0813
2290.1805,2393.9604,2108.3706,2135.1609000000003,2247.2639999999997,2400.723,2369.5110000000004,1940.6061000000002,2263.3902000000003,2308.3875,2004.8508,2029.0401000000002,2254.5468,1824.3414
2289.6603,2393.7003,2108.1105000000002,2134.9008,2246.7438,2402.0235000000002,2368.7307,1940.8662,2261.0493,2307.3471,2005.6311,2028.2598,2253.2463000000002,1822.5207
2290.1805,2393.9604,2108.1105000000002,2134.6407,2247.7842,2400.723,2368.7307,1940.6061000000002,2260.269,2307.8673000000003,2006.9316,2027.4795000000001,2253.7664999999997,1822.5207
2290.1805,2394.7407,2107.0701000000004,2137.7619000000004,2249.6049,2399.9427,2370.5514000000003,1940.0859,2262.3498000000004,2308.3875,2004.8508,2027.2194,2254.2867,1823.8211999999999
2291.7410999999997,2393.7003,2107.3302000000003,2138.2821,2248.8246,2399.4225,2368.7307,1940.6061000000002,2263.1301000000003,2307.6072000000004,2007.1917,2027.7396,2253.7664999999997,1824.8616
2292.5214,2393.4402000000005,2106.2898000000005,2137.2417,2248.3044000000004,2399.9427,2368.2105,1940.0859,2260.7892,2308.3875,2008.2321,2025.9189,2252.9862,1823.8211999999999
2290.7007,2394.2205000000004,2106.5499,2137.7619000000004,2247.7842,2400.4629,2368.7307,1938.7854,2260.269,2309.9481,2006.1513,2027.9997,2253.7664999999997,1825.1217000000001
2289.9204,2393.7003,2108.1105000000002,2137.2417,2249.0847000000003,2401.7634000000003,2368.9908,1940.8662,2262.3498000000004,2308.6476000000002,2005.1109000000001,2030.3406,2254.2867,1824.6015
2290.9608,2393.4402000000005,2107.3302000000003,2137.2417,2251.1655,2403.324,2370.5514000000003,1941.6465,2262.3498000000004,2306.8269000000005,2005.1109000000001,2026.6992,2254.0266,1819.9197000000001
2291.481,2393.7003,2108.1105000000002,2135.9412,2248.3044000000004,2401.5033,2369.5110000000004,1940.346,2260.7892,2308.1274,2006.9316,2026.4391,2255.067,1821.4803000000002
2290.7007,2392.92,2108.6306999999997,2135.4210000000003,2246.4836999999998,2400.723,2369.7711,1939.8258,2261.5695,2308.9077,2005.371,2029.0401000000002,2253.7664999999997,1823.8211999999999
2290.1805,2392.1397,2108.8908,2137.2417,2248.8246,2402.8038,2369.5110000000004,1939.8258,2261.3094,2307.087,2004.8508,2027.7396,2252.9862,1823.0409000000002
2290.9608,2392.6599,2108.8908,2136.2013,2248.0443,2402.2835999999998,2367.9504,1940.346,2260.7892,2306.5668,2007.4518000000003,2025.6588000000002,2253.7664999999997,1823.8211999999999
2290.9608,2393.9604,2107.3302000000003,2135.9412,2247.2639999999997,2401.7634000000003,2368.9908,1939.0455000000002,2262.3498000000004,2308.1274,2005.8912,2027.4795000000001,2252.7261,1823.8211999999999
2290.9608,2394.2205000000004,2105.5095,2136.4614,2248.3044000000004,2401.5033,2368.7307,1937.4849000000002,2264.1705,2309.1677999999997,2006.1513,2029.8204,2254.2867,1823.0409000000002
2291.7410999999997,2395.0008,2103.4287,2136.2013,2247.7842,2401.5033,2368.9908,1939.0455000000002,2262.3498000000004,2307.8673000000003,2007.1917,2027.2194,2254.5468,1823.0409000000002
2291.481,2395.7810999999997,2105.2494,2136.4614,2248.5645,2401.2432,2370.0312,1940.0859,2260.5290999999997,2306.5668,2006.6715000000002,2025.6588000000002,2252.7261,1823.0409000000002
2290.1805,2393.9604,2109.6711,2135.9412,2249.3448000000003,2399.6826,2368.4706,1939.8258,2261.5695,2307.8673000000003,2006.9316,2028.2598,2254.2867,1822.7808
2289.4002,2393.1801,2108.3706,2136.7214999999997,2249.0847000000003,2400.723,2368.7307,1940.6061000000002,2261.0493,2308.9077,2005.6311,2027.9997,2254.8069000000005,1820.4399
2290.4406000000004,2393.4402000000005,2107.8504,2136.4614,2247.7842,2402.0235000000002,2368.7307,1941.6465,2260.269,2307.8673000000003,2004.5907000000002,2026.9593000000002,2253.5064,1821.7404
2291.481,2392.92,2108.6306999999997,2135.4210000000003,2248.0443,2402.0235000000002,2369.2509,1940.8662,2261.8296,2307.6072000000004,2004.0705,2027.4795000000001,2254.8069000000005,1824.3414
2290.4406000000004,2392.6599,2107.5903,2137.2417,2248.5645,2402.5437,2370.0312,1939.3056,2262.0897,2308.3875,2005.1109000000001,2028.2598,2255.3271,1822.0005
2290.7007,2391.3594000000003,2107.5903,2136.7214999999997,2247.2639999999997,2402.2835999999998,2368.2105,1939.8258,2261.8296,2308.9077,2007.9720000000002,2027.2194,2254.2867,1822.0005
2291.481,2392.6599,2107.0701000000004,2135.4210000000003,2248.8246,2402.5437,2369.2509,1940.8662,2262.87,2309.1677999999997,2005.8912,2025.1386,2252.9862,1823.0409000000002
2291.2209000000003,2395.2609,2107.3302000000003,2135.4210000000003,2249.0847000000003,2402.0235000000002,2370.8115,1939.3056,2263.6503,2308.6476000000002,2005.371,2026.9593000000002,2252.9862,1822.0005
2290.9608,2395.0008,2107.3302000000003,2136.4614,2247.7842,2400.4629,2370.2913000000003,1939.0455000000002,2262.6099,2307.087,2007.7119,2028.5199000000002,2255.067,1822.2606
2289.9204,2393.9604,2106.0297,2139.3225,2248.8246,2400.9831000000004,2370.2913000000003,1940.0859,2261.5695,2306.5668,2006.1513,2027.4795000000001,2254.8069000000005,1822.2606
2289.9204,2393.7003,2108.3706,2136.9816,2248.8246,2401.5033,2367.9504,1940.6061000000002,2262.0897,2307.6072000000004,2005.8912,2028.2598,2253.7664999999997,1822.2606
2291.2209000000003,2393.1801,2108.3706,2134.6407,2247.7842,2402.2835999999998,2368.7307,1940.8662,2262.0897,2307.6072000000004,2005.8912,2027.2194,2253.2463000000002,1821.2202
2292.5214,2392.3998,2107.3302000000003,2137.2417,2247.2639999999997,2401.2432,2370.5514000000003,1940.346,2261.3094,2306.5668,2006.4114,2026.4391,2254.2867,1821.7404
2292.7815,2392.3998,2107.3302000000003,2136.4614,2247.2639999999997,2401.7634000000003,2369.2509,1939.8258,2261.5695,2307.6072000000004,2006.4114,2027.2194,2255.067,1823.301
2290.9608,2393.4402000000005,2107.3302000000003,2135.4210000000003,2247.7842,2403.0639,2370.2913000000003,1940.0859,2262.6099,2308.1274,2005.1109000000001,2027.2194,2253.2463000000002,1822.0005
2290.9608,2392.1397,2108.3706,2136.4614,2249.0847000000003,2401.2432,2370.0312,1940.8662,2261.8296,2307.6072000000004,2006.4114,2028.78,2252.4660000000003,1821.7404
2292.0012,2392.3998,2106.0297,2137.2417,2248.8246,2401.5033,2368.7307,1939.8258,2261.3094,2307.087,2005.8912,2028.5199000000002,2252.7261,1822.7808
2291.2209000000003,2395.0008,2106.2898000000005,2135.1609000000003,2247.2639999999997,2402.5437,2368.9908,1937.4849000000002,2261.5695,2306.8269000000005,2004.8508,2027.9997,2254.0266,1822.7808
2290.9608,2395.521,2108.6306999999997,2132.0397000000003,2248.3044000000004,2400.2028,2367.9504,1940.0859,2262.0897,2306.3067,2006.4114,2028.5199000000002,2256.1074,1824.0813
2291.7410999999997,2395.2609,2107.3302000000003,2134.1205,2249.8650000000002,2400.9831000000004,2368.9908,1942.1667,2262.6099,2306.8269000000005,2006.1513,2027.7396,2254.2867,1824.3414
2292.5214,2394.4806000000003,2107.3302000000003,2135.4210000000003,2248.3044000000004,2402.2835999999998,2370.0312,1940.6061000000002,2262.6099,2307.8673000000003,2006.1513,2027.9997,2252.4660000000003,1824.0813
2290.1805,2394.4806000000003,2108.6306999999997,2134.1205,2248.0443,2401.5033,2369.7711,1940.346,2261.8296,2306.8269000000005,2005.6311,2028.5199000000002,2253.2463000000002,1823.0409000000002
2289.9204,2394.2205000000004,2108.8908,2136.9816,2248.3044000000004,2400.723,2368.4706,1941.1263000000001,2261.0493,2305.7864999999997,2004.5907000000002,2028.5199000000002,2253.7664999999997,1822.0005
2293.3017,2392.3998,2107.8504,2139.0624,2247.0039,2400.4629,2366.6499,1939.8258,2262.0897,2307.087,2006.1513,2027.9997,2254.5468,1823.5611000000001
2291.7410999999997,2392.3998,2106.81,2138.2821,2247.5241,2400.9831000000004,2368.7307,1939.3056,2262.3498000000004,2308.1274,2005.1109000000001,2026.9593000000002,2254.0266,1823.8211999999999
2289.6603,2392.1397,2108.3706,2137.5018,2247.5241,2400.9831000000004,2368.7307,1940.6061000000002,2261.3094,2308.1274,2004.8508,2026.6992,2254.2867,1824.0813
2291.7410999999997,2391.8796,2107.5903,2136.9816,2246.4836999999998,2399.9427,2367.6902999999998,1941.3863999999999,2261.0493,2308.1274,2006.1513,2026.9593000000002,2254.2867,1822.5207
2291.7410999999997,2394.4806000000003,2105.2494,2137.2417,2248.3044000000004,2400.4629,2369.2509,1940.6061000000002,2261.5695,2307.6072000000004,2005.8912,2028.5199000000002,2252.9862,1821.2202
2289.6603,2395.0008,2107.5903,2133.8604,2249.0847000000003,2400.9831000000004,2368.7307,1940.8662,2262.3498000000004,2307.3471,2006.6715000000002,2029.0401000000002,2253.2463000000002,1824.0813
2290.4406000000004,2393.4402000000005,2107.8504,2132.82,2247.7842,2401.7634000000003,2368.7307,1941.1263000000001,2262.6099,2307.087,2006.4114,2025.9189,2252.9862,1823.8211999999999
2292.5214,2394.7407,2106.81,2135.6811,2248.5645,2401.2432,2368.9908,1939.8258,2263.3902000000003,2307.6072000000004,2007.4518000000003,2026.9593000000002,2254.2867,1821.7404
2290.4406000000004,2395.521,2107.5903,2134.9008,2248.8246,2400.9831000000004,2368.4706,1939.5657,2263.9104,2308.6476000000002,2008.2321,2029.8204,2254.5468,1823.301
2288.0997,2393.1801,2106.5499,2135.6811,2247.5241,2402.2835999999998,2368.2105,1940.8662,2262.0897,2307.8673000000003,2006.9316,2027.4795000000001,2252.7261,1823.301
2291.2209000000003,2391.6195,2107.0701000000004,2138.022,2247.5241,2400.723,2366.6499,1941.1263000000001,2261.3094,2307.087,2006.6715000000002,2025.6588000000002,2254.8069000000005,1822.7808
2293.5618000000004,2393.1801,2107.5903,2138.2821,2249.8650000000002,2399.6826,2367.6902999999998,1941.1263000000001,2262.6099,2307.087,2004.8508,2025.3987,2256.6276000000003,1822.7808
2291.481,2393.9604,2108.6306999999997,2136.9816,2248.8246,2400.9831000000004,2369.2509,1941.6465,2263.1301000000003,2307.6072000000004,2005.6311,2026.6992,2254.8069000000005,1822.2606
2290.7007,2393.7003,2108.1105000000002,2136.2013,2247.2639999999997,2400.9831000000004,2368.2105,1941.9066,2261.3094,2308.6476000000002,2007.9720000000002,2028.78,2254.2867,1822.2606
2291.481,2393.7003,2105.7696,2138.2821,2250.1251,2401.7634000000003,2368.7307,1939.8258,2260.0089000000003,2308.3875,2005.371,2028.2598,2254.8069000000005,1822.7808
2291.2209000000003,2393.1801,2108.1105000000002,2135.6811,2249.8650000000002,2400.9831000000004,2367.4302000000002,1938.5253000000002,2262.0897,2307.8673000000003,2004.5907000000002,2028.5199000000002,2255.5872000000004,1824.0813
2289.6603,2394.2205000000004,2109.6711,2132.82,2247.7842,2401.2432,2369.2509,1939.8258,2262.87,2308.3875,2005.6311,2028.5199000000002,2253.5064,1822.7808
2289.1401,2394.4806000000003,2108.3706,2135.6811,2248.8246,2401.7634000000003,2370.5514000000003,1939.3056,2261.0493,2309.1677999999997,2005.8912,2027.9997,2252.9862,1821.7404
2291.2209000000003,2393.1801,2107.3302000000003,2136.4614,2248.8246,2401.2432,2367.9504,1940.0859,2261.8296,2308.1274,2006.1513,2027.7396,2255.067,1823.8211999999999
2291.481,2392.92,2106.2898000000005,2135.4210000000003,2248.3044000000004,2403.8442,2368.4706,1941.1263000000001,2263.1301000000003,2306.5668,2004.8508,2026.9593000000002,2253.2463000000002,1822.2606
2292.0012,2392.92,2108.1105000000002,2137.2417,2247.2639999999997,2403.0639,2370.0312,1938.2652,2262.0897,2307.6072000000004,2006.6715000000002,2027.4795000000001,2252.4660000000003,1822.0005
2293.0416,2392.6599,2107.3302000000003,2139.8427,2248.0443,2400.4629,2370.0312,1938.2652,2260.7892,2309.1677999999997,2007.1917,2025.6588000000002,2253.2463000000002,1823.301
2291.481,2393.4402000000005,2106.5499,2139.5826,2249.3448000000003,2401.7634000000003,2369.5110000000004,1940.6061000000002,2261.0493,2308.1274,2004.5907000000002,2025.3987,2253.2463000000002,1821.4803000000002
2290.7007,2392.92,2108.8908,2136.2013,2247.7842,2401.7634000000003,2368.7307,1939.8258,2261.8296,2307.8673000000003,2005.8912,2028.78,2253.7664999999997,1822.2606
2290.7007,2393.4402000000005,2107.5903,2136.2013,2248.0443,2401.7634000000003,2371.0715999999998,1938.7854,2261.8296,2308.6476000000002,2006.1513,2027.7396,2253.2463000000002,1823.0409000000002
2291.481,2395.521,2107.3302000000003,2136.4614,2249.6049,2401.5033,2369.5110000000004,1940.0859,2261.5695,2307.6072000000004,2006.6715000000002,2026.4391,2253.2463000000002,1822.7808
2292.0012,2396.3013,2108.3706,2134.6407,2249.8650000000002,2401.2432,2367.1701000000003,1941.3863999999999,2261.8296,2307.3471,2006.6715000000002,2027.9997,2253.5064,1823.301
,,,,,,,,,,,,,
2291.2209000000003,2393.1801,2107.8504,2134.1205,2246.7438,2401.5033,2366.91,1940.6061000000002,2263.3902000000003,2306.5668,2006.6715000000002,2029.0401000000002,2255.3271,1823.8211999999999
2291.481,2392.92,2106.2898000000005,2134.9008,2247.2639999999997,2402.5437,2368.2105,1940.346,2261.5695,2306.5668,2005.6311,2028.2598,2254.8069000000005,1824.0813
2290.4406000000004,2393.7003,2107.0701000000004,2136.4614,2247.7842,2401.7634000000003,2368.4706,1939.8258,2260.0089000000003,2307.087,2004.8508,2029.5603,2253.5064,1823.5611000000001
2290.4406000000004,2393.1801,2107.8504,2138.022,2247.2639999999997,2400.2028,2367.4302000000002,1940.0859,2262.3498000000004,2306.5668,2007.1917,2029.5603,2255.067,1822.5207
2290.9608,2393.7003,2106.81,2141.4033,2247.5241,2400.9831000000004,2370.5514000000003,1939.3056,2262.87,2306.8269000000005,2006.4114,2027.2194,2255.3271,1822.2606
2291.7410999999997,2393.4402000000005,2108.6306999999997,2138.8023000000003,2248.0443,2400.723,2368.7307,1938.5253000000002,2261.5695,2309.1677999999997,2006.4114,2027.7396,2254.5468,1824.6015
2289.4002,2393.9604,2107.0701000000004,2136.2013,2249.0847000000003,2403.0639,2369.7711,1938.7854,2260.5290999999997,2309.4279,2005.371,2026.4391,2252.2059,1822.5207
2288.0997,2394.4806000000003,2106.5499,2139.5826,2248.5645,2402.2835999999998,2372.6322,1939.8258,2261.3094,2308.3875,2005.1109000000001,2026.6992,2251.6857,1821.2202
2290.9608,2393.1801,2108.3706,2138.022,2247.2639999999997,2398.9023,2368.9908,1941.6465,2263.9104,2308.3875,2007.1917,2029.0401000000002,2255.067,1824.6015
2290.9608,2394.4806000000003,2106.2898000000005,2136.4614,2248.8246,2400.9831000000004,2368.2105,1940.8662,2263.3902000000003,2308.3875,2006.1513,2028.2598,2254.8069000000005,1823.5611000000001
2290.7007,2394.7407,2106.2898000000005,2135.4210000000003,2248.5645,2400.9831000000004,2368.9908,1939.0455000000002,2261.8296,2308.3875,2007.7119,2029.0401000000002,2254.0266,1823.8211999999999
2290.4406000000004,2393.4402000000005,2106.5499,2136.4614,2248.5645,2400.4629,2370.0312,1939.3056,2262.3498000000004,2308.3875,2005.371,2028.2598,2253.5064,1824.6015
2289.9204,2393.1801,2107.3302000000003,2137.7619000000004,2248.8246,2401.5033,2368.2105,1939.0455000000002,2263.6503,2307.8673000000003,2003.2902,2027.2194,2253.7664999999997,1822.5207
2292.2613,2394.2205000000004,2109.1509,2131.7796,2246.2236,2399.1623999999997,2364.5691,1940.6061000000002,2263.1301000000003,2307.6072000000004,2007.9720000000002,2027.9997,2255.3271,1824.0813
2291.481,2398.122,2107.5903,2132.2998000000002,2247.2639999999997,2400.9831000000004,2368.4706,1941.9066,2261.3094,2307.3471,2005.8912,2026.4391,2252.2059,1823.8211999999999
2289.6603,2396.5614,2108.6306999999997,2135.6811,2248.5645,2401.7634000000003,2369.7711,1940.6061000000002,2261.5695,2307.6072000000004,2005.1109000000001,2026.4391,2253.2463000000002,1824.3414
2289.4002,2393.1801,2108.1105000000002,2133.3402,2248.0443,2400.4629,2368.2105,1940.346,2262.87,2308.3875,2006.9316,2027.7396,2256.3675,1824.3414
2288.6199,2395.2609,2107.0701000000004,2135.9412,2247.7842,2402.2835999999998,2369.5110000000004,1941.1263000000001,2262.3498000000004,2308.6476000000002,2005.8912,2028.5199000000002,2253.5064,1821.4803000000002
2291.2209000000003,2394.2205000000004,2110.7115,2137.5018,2246.4836999999998,2402.2835999999998,2368.4706,1941.6465,2261.5695,2307.6072000000004,2007.9720000000002,2028.2598,2253.7664999999997,1821.7404
2292.5214,2392.6599,2108.8908,2138.5422000000003,2248.0443,2401.7634000000003,2370.0312,1940.8662,2260.7892,2306.5668,2007.1917,2026.4391,2254.2867,1822.5207
2291.481,2393.7003,2106.2898000000005,2140.1028,2249.3448000000003,2401.5033,2371.0715999999998,1939.3056,2260.5290999999997,2308.3875,2006.4114,2027.2194,2253.2463000000002,1822.5207
2290.9608,2393.1801,2107.0701000000004,2136.7214999999997,2248.8246,2402.5437,2369.5110000000004,1940.6061000000002,2261.0493,2309.688,2007.4518000000003,2027.4795000000001,2254.0266,1822.7808
2290.4406000000004,2392.92,2107.3302000000003,2135.1609000000003,2248.8246,2402.8038,2369.2509,1939.8258,2261.0493,2309.1677999999997,2007.1917,2026.6992,2253.7664999999997,1823.0409000000002
2290.9608,2394.2205000000004,2108.3706,2135.6811,2248.8246,2399.9427,2368.7307,1937.7450000000001,2261.3094,2308.6476000000002,2006.9316,2026.9593000000002,2254.0266,1823.5611000000001
2290.9608,2395.0008,2107.3302000000003,2135.6811,2249.3448000000003,2400.9831000000004,2369.2509,1940.8662,2261.0493,2308.1274,2004.0705,2026.6992,2254.2867,1822.0005
2289.6603,2394.4806000000003,2106.81,2133.3402,2248.5645,2402.2835999999998,2368.7307,1943.2071,2261.3094,2306.8269000000005,2004.0705,2029.0401000000002,2255.067,1822.7808
2290.4406000000004,2394.4806000000003,2107.5903,2133.0801,2248.3044000000004,2400.9831000000004,2368.4706,1939.8258,2263.3902000000003,2305.7864999999997,2005.8912,2029.5603,2254.5468,1824.8616
2291.481,2395.521,2107.8504,2136.7214999999997,2249.3448000000003,2402.0235000000002,2368.9908,1939.3056,2263.3902000000003,2306.3067,2005.1109000000001,2027.2194,2253.5064,1822.0005
2291.2209000000003,2393.9604,2109.9312,2134.3806000000004,2247.0039,2401.5033,2365.0893,1942.4268000000002,2262.3498000000004,2307.3471,2007.7119,2028.78,2256.1074,1822.7808
2289.4002,2392.92,2108.3706,2134.6407,2247.5241,2401.7634000000003,2367.1701000000003,1940.6061000000002,2261.8296,2307.087,2006.4114,2027.7396,2256.1074,1823.8211999999999
2289.9204,2393.4402000000005,2108.1105000000002,2139.3225,2249.0847000000003,2402.8038,2370.0312,1938.7854,2261.5695,2306.8269000000005,2004.8508,2026.179,2254.8069000000005,1822.2606
2291.7410999999997,2393.1801,2109.1509,2136.4614,2246.7438,2401.2432,2366.91,1942.1667,2262.3498000000004,2306.3067,2007.9720000000002,2028.78,2255.5872000000004,1823.0409000000002
2290.1805,2393.9604,2107.0701000000004,2134.6407,2248.3044000000004,2401.5033,2368.2105,1942.6869000000002,2261.3094,2304.7461,2006.1513,2027.9997,2253.2463000000002,1822.0005
2290.1805,2393.1801,2108.8908,2135.1609000000003,2249.6049,2400.9831000000004,2368.7307,1939.5657,2259.7488000000003,2306.8269000000005,2005.8912,2026.9593000000002,2252.9862,1822.5207
2292.5214,2391.8796,2108.1105000000002,2134.9008,2248.3044000000004,2400.2028,2367.6902999999998,1939.5657,2260.7892,2309.4279,2007.4518000000003,2028.2598,2253.7664999999997,1823.8211999999999
2291.7410999999997,2393.7003,2105.5095,2136.4614,2249.0847000000003,2400.9831000000004,2367.9504,1939.3056,2261.5695,2308.1274,2005.8912,2028.78,2252.7261,1822.7808
2290.1805,2393.9604,2107.8504,2134.6407,2249.0847000000003,2400.4629,2367.4302000000002,1938.2652,2261.3094,2307.3471,2005.8912,2027.7396,2254.0266,1822.7808
2291.2209000000003,2393.7003,2106.81,2135.6811,2247.7842,2400.723,2369.5110000000004,1937.7450000000001,2261.0493,2307.8673000000003,2005.6311,2027.9997,2252.9862,1822.7808
2292.0012,2393.9604,2105.2494,2137.5018,2247.5241,2401.2432,2369.2509,1938.2652,2262.0897,2307.3471,2005.6311,2030.0805,2252.7261,1823.5611000000001
2289.6603,2393.7003,2108.8908,2135.6811,2248.0443,2402.2835999999998,2366.6499,1940.6061000000002,2262.87,2307.6072000000004,2004.8508,2028.2598,2255.5872000000004,1822.7808
2289.4002,2394.2205000000004,2109.411,2136.9816,2247.0039,2403.0639,2368.4706,1940.346,2261.3094,2307.6072000000004,2004.5907000000002,2026.9593000000002,2255.067,1821.4803000000002
2292.0012,2393.7003,2107.0701000000004,2136.9816,2246.2236,2401.7634000000003,2369.5110000000004,1940.346,2260.5290999999997,2306.8269000000005,2007.1917,2029.5603,2254.0266,1823.5611000000001
2291.7410999999997,2392.92,2106.5499,2135.4210000000003,2248.3044000000004,2401.7634000000003,2368.9908,1941.1263000000001,2260.7892,2307.6072000000004,2005.6311,2027.9997,2255.3271,1823.5611000000001
2289.9204,2393.4402000000005,2109.1509,2135.4210000000003,2248.0443,2401.5033,2368.2105,1940.346,2260.5290999999997,2308.6476000000002,2004.5907000000002,2025.3987,2256.1074,1821.7404
2290.4406000000004,2393.9604,2108.6306999999997,2136.2013,2247.5241,2401.5033,2368.9908,1940.0859,2260.5290999999997,2307.6072000000004,2006.1513,2026.179,2254.8069000000005,1822.5207
2292.0012,2393.7003,2106.5499,2137.5018,2249.3448000000003,2402.2835999999998,2370.2913000000003,1939.5657,2261.0493,2307.3471,2005.8912,2027.7396,2253.7664999999997,1822.7808
2292.2613,2392.92,2108.1105000000002,2135.9412,2249.6049,2401.7634000000003,2368.2105,1939.0455000000002,2262.3498000000004,2308.3875,2006.9316,2029.0401000000002,2255.3271,1823.301
2290.9608,2394.2205000000004,2108.1105000000002,2135.6811,2248.0443,2403.5841,2368.4706,1938.5253000000002,2262.0897,2307.8673000000003,2007.1917,2028.5199000000002,2253.5064,1824.0813
2290.9608,2395.0008,2107.3302000000003,2137.7619000000004,2247.7842,2402.8038,2369.2509,1938.5253000000002,2261.8296,2307.6072000000004,2006.9316,2028.78,2252.7261,1824.0813
2292.5214,2393.1801,2107.3302000000003,2136.7214999999997,2247.5241,2400.4629,2368.2105,1940.6061000000002,2262.6099,2307.8673000000003,2006.4114,2029.3002000000001,2255.067,1822.7808
2292.5214,2393.1801,2107.0701000000004,2136.4614,2247.0039,2402.0235000000002,2368.9908,1941.1263000000001,2261.8296,2307.087,2005.371,2028.5199000000002,2255.067,1820.7
2292.0012,2393.9604,2107.8504,2136.2013,2247.0039,2402.5437,2369.2509,1939.0455000000002,2261.3094,2307.3471,2007.7119,2028.5199000000002,2254.5468,1821.7404
2291.481,2393.9604,2107.0701000000004,2136.9816,2248.3044000000004,2402.0235000000002,2369.2509,1939.5657,2261.0493,2308.1274,2007.1917,2027.2194,2253.2463000000002,1822.5207
2291.7410999999997,2393.1801,2107.0701000000004,2138.2821,2247.5241,2402.0235000000002,2368.7307,1940.8662,2260.5290999999997,2308.1274,2004.5907000000002,2026.4391,2253.2463000000002,1822.2606
2293.3017,2391.8796,2107.3302000000003,2135.6811,2246.7438,2401.7634000000003,2368.2105,1939.5657,2261.8296,2307.087,2005.8912,2026.179,2254.5468,1823.5611000000001
2292.0012,2392.92,2106.5499,2136.2013,2248.8246,2402.2835999999998,2369.2509,1937.7450000000001,2263.1301000000003,2306.5668,2005.6311,2026.179,2252.9862,1822.5207
2290.4406000000004,2393.7003,2107.5903,2136.7214999999997,2249.0847000000003,2401.7634000000003,2367.9504,1940.0859,2263.1301000000003,2307.087,2005.1109000000001,2027.9997,2252.9862,1822.7808
2291.7410999999997,2393.9604,2107.8504,2135.1609000000003,2248.0443,2401.7634000000003,2367.6902999999998,1941.1263000000001,2261.8296,2307.087,2004.3306,2027.7396,2253.7664999999997,1823.8211999999999
2291.7410999999997,2394.4806000000003,2107.5903,2135.9412,2248.0443,2402.0235000000002,2369.5110000000004,1939.5657,2262.0897,2306.3067,2004.5907000000002,2026.9593000000002,2253.2463000000002,1822.7808
2290.4406000000004,2394.4806000000003,2108.6306999999997,2135.4210000000003,2248.0443,2400.2028,2369.7711,1940.346,2263.3902000000003,2307.087,2007.4518000000003,2028.78,2254.2867,1823.0409000000002
2289.4002,2394.7407,2106.5499,2135.9412,2248.8246,2400.723,2369.7711,1941.3863999999999,2263.3902000000003,2307.6072000000004,2006.1513,2027.7396,2254.8069000000005,1822.5207
2291.7410999999997,2393.1801,2105.5095,2135.4210000000003,2248.3044000000004,2401.2432,2368.4706,1939.8258,2261.0493,2307.6072000000004,2005.6311,2026.179,2254.8069000000005,1823.0409000000002
2292.7815,2391.8796,2106.5499,2134.1205,2247.5241,2399.6826,2368.4706,1940.0859,2259.7488000000003,2307.8673000000003,2005.8912,2025.6588000000002,2254.0266,1823.301
2289.6603,2392.92,2107.3302000000003,2137.2417,2247.7842,2400.2028,2369.7711,1941.1263000000001,2260.7892,2307.3471,2004.3306,2025.6588000000002,2252.7261,1822.5207
2290.4406000000004,2392.3998,2107.5903,2138.022,2247.7842,2401.5033,2368.2105,1941.9066,2262.0897,2306.8269000000005,2004.5907000000002,2026.179,2253.2463000000002,1822.7808
2292.0012,2393.1801,2105.5095,2136.2013,2248.5645,2401.5033,2369.5110000000004,1941.3863999999999,2261.5695,2307.8673000000003,2006.4114,2025.3987,2252.9862,1821.7404
2290.7007,2394.7407,2107.0701000000004,2135.9412,2249.0847000000003,2400.723,2369.5110000000004,1939.8258,2261.5695,2307.8673000000003,2007.7119,2026.4391,2253.2463000000002,1822.0005
2289.6603,2393.7003,2107.5903,2136.4614,2248.8246,2401.5033,2367.6902999999998,1940.8662,2262.3498000000004,2307.087,2005.8912,2029.0401000000002,2254.0266,1823.301
2289.6603,2393.1801,2105.5095,2137.2417,2248.8246,2402.2835999999998,2369.7711,1940.0859,2261.8296,2307.087,2004.8508,2028.78,2253.5064,1822.5207
2290.7007,2394.2205000000004,2107.8504,2134.6407,2248.8246,2400.4629,2368.9908,1938.2652,2261.8296,2308.1274,2008.2321,2029.8204,2254.5468,1824.6015
2290.4406000000004,2394.2205000000004,2108.6306999999997,2132.82,2249.0847000000003,2402.5437,2368.2105,1939.5657,2262.3498000000004,2307.3471,2006.1513,2030.0805,2253.7664999999997,1824.0813
2290.1805,2392.6599,2107.5903,2135.4210000000003,2248.5645,2403.5841,2368.7307,1940.6061000000002,2261.5695,2306.5668,2003.8104,2027.4795000000001,2251.6857,1821.2202
2291.481,2392.3998,2107.5903,2137.2417,2248.0443,2399.9427,2367.4302000000002,1940.0859,2261.0493,2308.3875,2005.6311,2025.6588000000002,2252.2059,1823.301
2291.481,2393.4402000000005,2106.2898000000005,2138.2821,2249.0847000000003,2399.9427,2367.6902999999998,1939.3056,2261.0493,2308.3875,2004.3306,2026.4391,2252.7261,1823.5611000000001
2291.2209000000003,2391.6195,2107.5903,2139.0624,2247.0039,2401.5033,2367.6902999999998,1939.3056,2262.87,2306.8269000000005,2004.5907000000002,2028.2598,2254.0266,1823.0409000000002
2291.2209000000003,2390.5791,2108.3706,2139.3225,2246.7438,2400.9831000000004,2368.9908,1940.346,2262.87,2307.3471,2004.8508,2027.2194,2254.0266,1823.301
2292.0012,2393.7003,2106.81,2137.7619000000004,2248.5645,2400.723,2369.2509,1939.3056,2260.7892,2309.1677999999997,2005.1109000000001,2027.2194,2252.7261,1823.5611000000001
2291.7410999999997,2395.0008,2106.81,2134.9008,2247.7842,2401.5033,2367.9504,1938.0051,2260.7892,2308.1274,2006.1513,2029.8204,2252.9862,1824.0813
2289.6603,2394.2205000000004,2107.3302000000003,2136.2013,2247.2639999999997,2402.8038,2370.0312,1939.3056,2261.8296,2306.0466,2004.8508,2028.78,2252.9862,1822.5207
2289.4002,2394.2205000000004,2108.8908,2134.3806000000004,2247.5241,2401.5033,2369.5110000000004,1940.8662,2261.8296,2307.087,2006.4114,2027.4795000000001,2254.0266,1822.2606
2290.4406000000004,2394.4806000000003,2108.3706,2131.5195,2247.5241,2401.2432,2368.4706,1940.0859,2261.0493,2309.4279,2007.1917,2026.9593000000002,2254.2867,1822.5207
2289.9204,2393.4402000000005,2107.5903,2134.9008,2247.5241,2403.0639,2369.2509,1940.0859,2261.3094,2308.9077,2004.8508,2027.9997,2252.7261,1821.4803000000002
2290.4406000000004,2392.1397,2108.1105000000002,2136.7214999999997,2247.7842,2401.2432,2368.2105,1941.1263000000001,2261.8296,2308.1274,2005.6311,2027.9997,2253.7664999999997,1822.7808
2291.7410999999997,2392.92,2106.2898000000005,2136.4614,2247.7842,2400.723,2369.5110000000004,1940.346,2261.0493,2308.3875,2005.6311,2026.179,2254.2867,1822.2606
2292.0012,2392.92,2107.8504,2136.9816,2246.2236,2401.7634000000003,2370.0312,1939.0455000000002,2260.7892,2307.8673000000003,2005.8912,2026.9593000000002,2253.5064,1821.7404
2291.7410999999997,2392.3998,2108.3706,2137.5018,2246.4836999999998,2400.9831000000004,2368.4706,1939.3056,2261.3094,2306.8269000000005,2005.6311,2027.4795000000001,2254.0266,1823.5611000000001
2291.2209000000003,2394.7407,2106.0297,2138.022,2249.6049,2400.4629,2369.5110000000004,1939.5657,2261.5695,2307.6072000000004,2004.8508,2025.6588000000002,2253.7664999999997,1823.8211999999999
2291.2209000000003,2395.7810999999997,2108.1105000000002,2135.1609000000003,2248.5645,2400.723,2368.7307,1939.5657,2262.6099,2308.1274,2006.9316,2027.2194,2255.067,1823.301
2290.1805,2394.2205000000004,2109.1509,2133.6003,2246.7438,2402.2835999999998,2367.9504,1939.8258,2263.3902000000003,2307.3471,2005.371,2029.5603,2255.3271,1822.5207
2290.1805,2393.9604,2108.6306999999997,2134.1205,2248.3044000000004,2402.2835999999998,2368.4706,1939.8258,2262.0897,2308.1274,2005.1109000000001,2029.0401000000002,2253.7664999999997,1822.2606
2291.2209000000003,2394.2205000000004,2108.6306999999997,2133.3402,2248.8246,2402.0235000000002,2368.2105,1940.346,2261.3094,2308.1274,2007.1917,2027.4795000000001,2253.2463000000002,1822.5207
2290.4406000000004,2394.2205000000004,2107.0701000000004,2134.3806000000004,2247.2639999999997,2402.8038,2369.2509,1939.3056,2261.5695,2306.8269000000005,2005.8912,2027.4795000000001,2253.2463000000002,1821.7404
2291.481,2393.1801,2107.3302000000003,2135.6811,2246.7438,2401.7634000000003,2368.2105,1938.5253000000002,2261.0493,2307.087,2005.8912,2029.0401000000002,2254.2867,1822.2606
2293.0416,2393.9604,2107.0701000000004,2137.5018,2248.5645,2402.5437,2368.4706,1939.5657,2260.5290999999997,2308.1274,2005.8912,2027.4795000000001,2254.2867,1822.2606
2293.3017,2394.4806000000003,2105.5095,2139.0624,2249.3448000000003,2403.324,2370.0312,1939.0455000000002,2261.0493,2307.3471,2006.6715000000002,2026.6992,2254.0266,1822.2606
2292.7815,2391.3594000000003,2106.2898000000005,2138.022,2247.0039,2400.723,2369.5110000000004,1938.2652,2261.5695,2306.5668,2006.9316,2028.2598,2254.0266,1823.0409000000002
2290.9608,2392.1397,2107.5903,2138.2821,2247.0039,2399.9427,2370.5514000000003,1939.0455000000002,2262.3498000000004,2306.8269000000005,2005.1109000000001,2027.9997,2253.2463000000002,1822.2606
2291.481,2394.4806000000003,2107.8504,2136.7214999999997,2247.7842,2399.9427,2369.7711,1939.8258,2263.3902000000003,2307.8673000000003,2006.4114,2027.7396,2254.0266,1822.5207
2291.481,2394.2205000000004,2106.5499,2134.9008,2248.3044000000004,2400.9831000000004,2368.4706,1939.3056,2262.3498000000004,2307.3471,2006.4114,2028.2598,2254.2867,1822.7808
2288.88,2392.3998,2107.8504,2135.9412,2247.7842,2402.0235000000002,2369.7711,1939.5657,2260.7892,2307.6072000000004,2004.8508,2029.3002000000001,2254.0266,1822.7808
2289.1401,2392.1397,2109.1509,2132.82,2248.0443,2402.2835999999998,2369.2509,1941.1263000000001,2262.6099,2308.1274,2006.4114,2029.5603,2254.2867,1824.0813
2290.4406000000004,2394.7407,2106.81,2132.0397000000003,2249.8650000000002,2404.1043,2368.9908,1941.1263000000001,2262.87,2306.8269000000005,2004.8508,2028.5199000000002,2253.2463000000002,1822.7808
2290.9608,2393.7003,2106.81,2135.9412,2249.0847000000003,2402.5437,2368.7307,1940.0859,2261.0493,2306.3067,2005.1109000000001,2028.2598,2253.7664999999997,1822.7808
2291.481,2391.8796,2107.3302000000003,2137.7619000000004,2248.0443,2399.6826,2368.9908,1941.3863999999999,2261.5695,2307.087,2006.4114,2026.9593000000002,2254.2867,1823.8211999999999
2291.7410999999997,2393.9604,2106.2898000000005,2137.7619000000004,2248.8246,2400.723,2369.2509,1941.6465,2262.3498000000004,2307.3471,2005.6311,2026.179,2252.7261,1822.5207
2291.2209000000003,2393.7003,2106.81,2137.7619000000004,2249.0847000000003,2400.9831000000004,2368.9908,1940.0859,2261.5695,2307.087,2006.4114,2028.2598,2252.9862,1823.0409000000002
2290.7007,2392.3998,2106.5499,2139.0624,2248.8246,2399.9427,2370.5514000000003,1938.7854,2260.5290999999997,2306.0466,2005.6311,2027.9997,2252.4660000000003,1822.7808
2291.7410999999997,2393.4402000000005,2107.3302000000003,2136.4614,2248.3044000000004,2400.2028,2369.5110000000004,1939.0455000000002,2260.7892,2306.0466,2005.1109000000001,2026.9593000000002,2253.2463000000002,1822.0005
2292.0012,2394.7407,2107.5903,2132.82,2247.5241,2402.5437,2368.9908,1940.8662,2262.0897,2307.6072000000004,2006.6715000000002,2027.7396,2255.5872000000004,1822.2606
2289.1401,2393.7003,2107.8504,2135.9412,2247.5241,2403.0639,2369.7711,1941.1263000000001,2262.6099,2307.6072000000004,2006.6715000000002,2027.7396,2254.2867,1822.2606
2289.1401,2392.6599,2109.6711,2135.6811,2247.7842,2400.2028,2367.4302000000002,1940.6061000000002,2262.0897,2307.6072000000004,2006.4114,2027.2194,2253.7664999999997,1823.301
2289.9204,2394.4806000000003,2107.3302000000003,2132.82,2248.8246,2401.5033,2368.2105,1941.1263000000001,2262.3498000000004,2308.3875,2005.1109000000001,2026.179,2254.2867,1823.5611000000001
2290.1805,2394.2205000000004,2106.5499,2134.9008,2249.3448000000003,2403.5841,2368.7307,1940.8662,2263.6503,2307.6072000000004,2005.1109000000001,2027.7396,2254.0266,1823.0409000000002
2291.7410999999997,2393.1801,2107.8504,2137.5018,2248.3044000000004,2400.723,2366.91,1940.0859,2262.87,2307.087,2007.1917,2028.2598,2253.2463000000002,1823.0409000000002
2291.7410999999997,2395.0008,2106.81,2138.5422000000003,2248.3044000000004,2399.9427,2368.9908,1939.8258,2261.5695,2307.3471,2007.9720000000002,2026.4391,2252.9862,1823.0409000000002
2291.2209000000003,2394.4806000000003,2107.3302000000003,2137.2417,2248.3044000000004,2401.5033,2368.7307,1940.0859,2261.5695,2307.6072000000004,2007.7119,2027.2194,2255.067,1824.6015
2291.2209000000003,2392.6599,2106.2898000000005,2136.9816,2248.0443,2400.9831000000004,2368.7307,1939.8258,2261.5695,2307.087,2004.3306,2028.5199000000002,2253.7664999999997,1823.0409000000002
2290.4406000000004,2393.7003,2106.5499,2136.9816,2248.3044000000004,2400.2028,2370.2913000000003,1938.5253000000002,2261.8296,2307.3471,2005.1109000000001,2028.5199000000002,2252.7261,1821.2202
2290.9608,2393.9604,2109.411,2134.9008,2248.8246,2401.5033,2368.9908,1940.0859,2262.6099,2307.8673000000003,2007.1917,2027.9997,2254.2867,1823.301
2291.481,2392.92,2108.8908,2137.2417,2249.0847000000003,2403.0639,2368.9908,1941.9066,2260.5290999999997,2307.8673000000003,2004.3306,2027.4795000000001,2253.7664999999997,1822.7808
2290.4406000000004,2392.3998,2107.8504,2139.0624,2246.4836999999998,2401.2432,2368.9908,1942.1667,2259.7488000000003,2308.1274,2005.6311,2029.0401000000002,2254.5468,1822.5207
2289.6603,2392.1397,2106.81,2137.2417,2246.7438,2401.7634000000003,2368.4706,1941.9066,2261.8296,2308.1274,2007.7119,2029.0401000000002,2254.8069000000005,1822.0005
2290.4406000000004,2393.1801,2106.5499,2135.9412,2249.6049,2402.5437,2367.6902999999998,1941.6465,2262.3498000000004,2307.3471,2006.1513,2028.5199000000002,2254.0266,1821.4803000000002
2291.481,2394.2205000000004,2107.0701000000004,2136.4614,2248.5645,2399.6826,2367.9504,1941.1263000000001,2261.8296,2307.087,2006.6715000000002,2028.78,2254.2867,1823.8211999999999
2290.7007,2394.4806000000003,2106.0297,2138.022,2248.5645,2400.723,2369.2509,1939.3056,2261.5695,2307.8673000000003,2005.1109000000001,2027.4795000000001,2253.2463000000002,1823.301
2290.9608,2394.7407,2107.5903,2136.2013,2249.6049,2402.2835999999998,2367.4302000000002,1939.0455000000002,2262.87,2307.3471,2005.6311,2028.2598,2253.7664999999997,1823.0409000000002
2291.7410999999997,2394.4806000000003,2108.6306999999997,2134.6407,2249.8650000000002,2401.2432,2368.2105,1939.8258,2263.6503,2307.3471,2007.4518000000003,2029.0401000000002,2253.7664999999997,1823.301
2290.9608,2393.4402000000005,2107.0701000000004,2136.4614,2249.3448000000003,2402.0235000000002,2371.0715999999998,1938.2652,2262.6099,2309.4279,2006.6715000000002,2025.9189,2252.2059,1822.7808
,,,,,,,,,,,,,
2291.2209000000003,2393.1801,2107.8504,2135.1609000000003,2246.7438,2401.5033,2368.4706,1940.0859,2262.87,2306.8269000000005,2004.3306,2027.4795000000001,2253.7664999999997,1822.7808
2291.2209000000003,2392.92,2107.8504,2136.2013,2246.4836999999998,2402.5437,2371.0715999999998,1941.1263000000001,2261.5695,2307.3471,2006.1513,2027.4795000000001,2253.7664999999997,1821.7404
2291.481,2392.1397,2107.8504,2135.1609000000003,2245.9635000000003,2402.2835999999998,2370.0312,1941.3863999999999,2260.5290999999997,2308.1274,2008.2321,2025.6588000000002,2255.067,1823.301
2291.2209000000003,2393.4402000000005,2106.81,2135.9412,2247.7842,2402.0235000000002,2368.4706,1941.1263000000001,2261.5695,2307.3471,2004.5907000000002,2026.6992,2254.8069000000005,1823.0409000000002
2291.2209000000003,2393.4402000000005,2108.1105000000002,2136.7214999999997,2248.3044000000004,2401.2432,2367.4302000000002,1940.6061000000002,2261.5695,2307.3471,2004.5907000000002,2028.5199000000002,2254.8069000000005,1823.0409000000002
2291.7410999999997,2393.4402000000005,2107.3302000000003,2136.7214999999997,2247.5241,2400.4629,2370.0312,1939.8258,2260.269,2307.087,2005.371,2027.2194,2254.5468,1823.301
2290.9608,2394.2205000000004,2106.5499,2135.9412,2247.5241,2400.4629,2370.2913000000003,1939.5657,2262.0897,2307.6072000000004,2005.6311,2027.9997,2253.2463000000002,1822.0005
2289.9204,2393.7003,2107.3302000000003,2133.3402,2248.0443,2401.5033,2367.4302000000002,1940.0859,2263.6503,2308.6476000000002,2006.4114,2029.0401000000002,2253.5064,1822.2606
2290.1805,2393.7003,2106.0297,2135.9412,2248.5645,2401.7634000000003,2369.2509,1939.8258,2261.8296,2308.3875,2006.6715000000002,2027.4795000000001,2253.2463000000002,1824.0813
2292.2613,2394.2205000000004,2106.5499,2138.022,2247.5241,2400.723,2369.5110000000004,1939.0455000000002,2261.5695,2308.9077,2008.2321,2029.0401000000002,2254.2867,1824.3414
2292.5214,2393.4402000000005,2107.8504,2136.2013,2247.2639999999997,2402.8038,2369.7711,1939.8258,2263.1301000000003,2308.1274,2006.6715000000002,2028.5199000000002,2255.8473000000004,1822.0005
2291.7410999999997,2392.92,2107.8504,2136.2013,2247.5241,2403.324,2370.2913000000003,1940.346,2261.5695,2306.8269000000005,2004.5907000000002,2026.6992,2255.3271,1822.0005
2292.0012,2393.4402000000005,2108.1105000000002,2136.2013,2248.0443,2400.9831000000004,2368.9908,1940.6061000000002,2260.269,2306.8269000000005,2006.4114,2027.2194,2254.8069000000005,1824.6015
2291.481,2394.2205000000004,2107.8504,2136.9816,2248.8246,2403.324,2369.7711,1940.8662,2261.8296,2306.8269000000005,2006.4114,2027.7396,2253.5064,1822.5207
2290.7007,2392.6599,2108.6306999999997,2136.9816,2248.3044000000004,2402.5437,2369.7711,1940.6061000000002,2263.1301000000003,2306.3067,2004.3306,2028.2598,2254.0266,1822.5207
2290.4406000000004,2392.6599,2107.5903,2135.6811,2247.7842,2400.2028,2368.4706,1941.9066,2261.5695,2308.1274,2004.3306,2027.4795000000001,2254.0266,1824.0813
2290.9608,2394.2205000000004,2106.2898000000005,2135.4210000000003,2247.0039,2401.5033,2368.7307,1940.8662,2260.0089000000003,2308.9077,2005.6311,2027.2194,2253.2463000000002,1823.301
2292.2613,2392.1397,2107.3302000000003,2134.6407,2246.4836999999998,2402.0235000000002,2368.9908,1938.5253000000002,2262.3498000000004,2308.3875,2006.4114,2029.8204,2253.7664999999997,1823.301
2290.4406000000004,2392.92,2106.81,2136.4614,2249.0847000000003,2401.5033,2369.5110000000004,1939.5657,2263.6503,2308.1274,2005.6311,2027.9997,2253.2463000000002,1822.2606
2289.4002,2395.7810999999997,2107.3302000000003,2136.9816,2248.5645,2401.2432,2368.7307,1940.0859,2262.3498000000004,2307.6072000000004,2007.4518000000003,2026.179,2254.0266,1822.5207
2290.7007,2395.2609,2107.8504,2134.3806000000004,2246.2236,2401.7634000000003,2368.2105,1939.3056,2261.5695,2307.6072000000004,2007.4518000000003,2027.9997,2254.8069000000005,1823.5611000000001
2290.9608,2393.4402000000005,2107.3302000000003,2135.9412,2247.0039,2401.2432,2368.9908,1940.0859,2260.7892,2307.8673000000003,2004.5907000000002,2029.5603,2253.5064,1822.5207
2290.7007,2392.6599,2107.8504,2136.7214999999997,2247.7842,2400.723,2367.4302000000002,1941.6465,2260.5290999999997,2309.1677999999997,2005.1109000000001,2027.7396,2254.2867,1823.301
2289.4002,2394.2205000000004,2107.0701000000004,2135.4210000000003,2247.5241,2402.2835999999998,2368.2105,1941.3863999999999,2260.7892,2308.1274,2004.8508,2025.6588000000002,2254.2867,1823.0409000000002
2289.1401,2393.9604,2108.1105000000002,2135.9412,2247.7842,2402.2835999999998,2368.9908,1941.1263000000001,2260.5290999999997,2306.0466,2005.6311,2027.7396,2253.7664999999997,1822.5207
2290.7007,2391.0993000000003,2108.3706,2136.9816,2248.3044000000004,2400.4629,2367.6902999999998,1941.6465,2261.3094,2307.8673000000003,2006.4114,2028.78,2254.5468,1823.0409000000002
2290.9608,2392.6599,2106.5499,2137.2417,2248.0443,2400.723,2368.7307,1940.0859,2262.3498000000004,2308.9077,2004.5907000000002,2027.7396,2253.5064,1822.5207
2290.9608,2395.0008,2108.6306999999997,2135.1609000000003,2247.2639999999997,2401.2432,2369.2509,1938.7854,2261.8296,2307.087,2005.371,2028.2598,2254.0266,1823.0409000000002
2289.1401,2394.2205000000004,2107.5903,2134.6407,2247.7842,2401.7634000000003,2369.7711,1939.0455000000002,2261.5695,2307.087,2004.8508,2027.7396,2254.8069000000005,1822.7808
2289.1401,2393.4402000000005,2105.5095,2135.6811,2247.2639999999997,2401.2432,2368.7307,1939.5657,2262.0897,2308.9077,2005.371,2027.7396,2253.7664999999997,1823.0409000000002
2291.2209000000003,2395.2609,2107.5903,2133.6003,2246.7438,2400.723,2368.4706,1940.0859,2261.3094,2307.8673000000003,2007.1917,2029.8204,2253.7664999999997,1824.3414
2290.4406000000004,2396.3013,2108.6306999999997,2134.1205,2247.2639999999997,2402.5437,2370.0312,1940.0859,2260.269,2306.8269000000005,2005.6311,2029.3002000000001,2254.8069000000005,1823.8211999999999
2289.9204,2393.7003,2108.3706,2135.6811,2247.0039,2401.5033,2368.4706,1940.0859,2260.5290999999997,2307.6072000000004,2005.8912,2027.9997,2255.3271,1824.0813
2291.481,2392.3998,2107.0701000000004,2135.6811,2248.0443,2400.2028,2367.6902999999998,1940.0859,2261.5695,2306.8269000000005,2005.8912,2026.4391,2252.9862,1824.0813
2291.7410999999997,2393.1801,2107.0701000000004,2137.7619000000004,2249.3448000000003,2401.5033,2368.7307,1939.3056,2262.87,2306.5668,2005.8912,2026.4391,2252.7261,1823.5611000000001
2291.481,2392.6599,2108.3706,2138.8023000000003,2248.0443,2401.2432,2367.1701000000003,1940.8662,2263.1301000000003,2308.6476000000002,2007.1917,2027.4795000000001,2256.1074,1824.3414
2290.9608,2392.1397,2107.5903,2138.8023000000003,2248.8246,2400.4629,2367.9504,1941.1263000000001,2261.5695,2308.6476000000002,2005.1109000000001,2027.2194,2255.5872000000004,1823.0409000000002
2291.481,2393.1801,2108.3706,2135.9412,2250.3852,2399.4225,2368.7307,1939.3056,2261.5695,2307.6072000000004,2005.8912,2029.0401000000002,2253.2463000000002,1822.7808
2289.9204,2393.9604,2108.1105000000002,2134.3806000000004,2249.8650000000002,2401.2432,2368.9908,1939.8258,2262.3498000000004,2308.1274,2006.9316,2030.0805,2253.2463000000002,1822.2606
2288.6199,2393.4402000000005,2106.5499,2136.4614,2249.0847000000003,2403.324,2368.9908,1940.6061000000002,2262.6099,2307.6072000000004,2005.8912,2028.78,2254.2867,1820.9601000000002
2290.4406000000004,2393.7003,2107.5903,2134.1205,2247.0039,2400.9831000000004,2366.6499,1939.5657,2262.87,2307.3471,2007.1917,2027.9997,2253.7664999999997,1823.301
2291.481,2395.2609,2107.5903,2133.0801,2247.2639999999997,2401.7634000000003,2367.4302000000002,1939.3056,2261.5695,2307.8673000000003,2005.8912,2027.9997,2252.2059,1824.3414
2290.4406000000004,2394.7407,2109.1509,2136.2013,2249.3448000000003,2403.324,2368.7307,1940.0859,2261.0493,2308.6476000000002,2005.1109000000001,2029.5603,2254.8069000000005,1823.301
2290.9608,2392.6599,2108.3706,2137.2417,2249.6049,2400.9831000000004,2368.4706,1940.0859,2262.3498000000004,2308.9077,2006.9316,2027.9997,2254.8069000000005,1823.5611000000001
2291.481,2392.92,2105.5095,2138.8023000000003,2249.3448000000003,2400.4629,2368.7307,1939.0455000000002,2261.8296,2308.1274,2005.8912,2024.8785,2250.9054,1823.301
2292.2613,2392.6599,2108.1105000000002,2139.3225,2248.3044000000004,2400.723,2367.1701000000003,1939.0455000000002,2261.0493,2307.3471,2006.1513,2027.2194,2252.7261,1822.7808
2292.5214,2391.8796,2109.411,2139.0624,2247.5241,2402.0235000000002,2368.2105,1939.0455000000002,2261.8296,2306.0466,2005.6311,2027.4795000000001,2254.5468,1822.5207
2291.7410999999997,2393.4402000000005,2107.8504,2137.2417,2247.5241,2401.5033,2368.9908,1938.2652,2262.6099,2306.3067,2004.3306,2025.9189,2252.9862,1823.5611000000001
2291.481,2394.7407,2108.1105000000002,2134.9008,2246.7438,2400.4629,2368.4706,1940.0859,2262.3498000000004,2307.6072000000004,2004.5907000000002,2027.7396,2254.5468,1823.8211999999999
2290.9608,2395.2609,2108.1105000000002,2136.2013,2247.2639999999997,2402.8038,2370.5514000000003,1940.346,2261.5695,2307.3471,2004.0705,2029.5603,2256.1074,1821.7404
2290.7007,2395.2609,2107.8504,2134.6407,2248.3044000000004,2402.8038,2368.9908,1938.5253000000002,2261.8296,2307.087,2005.6311,2028.78,2255.067,1822.7808
2290.7007,2395.2609,2107.5903,2131.7796,2249.8650000000002,2401.2432,2367.4302000000002,1939.0455000000002,2262.87,2307.8673000000003,2006.4114,2026.9593000000002,2253.5064,1823.8211999999999
2290.1805,2394.2205000000004,2108.6306999999997,2134.3806000000004,2249.0847000000003,2401.5033,2368.2105,1939.8258,2262.6099,2307.8673000000003,2006.4114,2027.9997,2252.4660000000003,1822.0005
2290.7007,2392.92,2108.3706,2136.9816,2247.0039,2400.9831000000004,2369.7711,1939.5657,2261.5695,2306.8269000000005,2006.9316,2028.78,2252.7261,1822.2606
2290.9608,2393.1801,2106.81,2138.5422000000003,2248.8246,2400.4629,2370.8115,1939.8258,2260.7892,2306.5668,2005.8912,2026.6992,2252.2059,1823.0409000000002
2290.7007,2392.6599,2108.3706,2138.5422000000003,2248.8246,2400.2028,2368.2105,1940.0859,2261.5695,2307.6072000000004,2006.9316,2026.6992,2253.5064,1823.8211999999999
2289.9204,2392.3998,2107.5903,2137.5018,2246.7438,2400.723,2368.2105,1939.3056,2262.0897,2307.087,2005.6311,2026.9593000000002,2255.5872000000004,1823.301
2290.4406000000004,2393.1801,2106.2898000000005,2138.2821,2247.5241,2400.9831000000004,2370.0312,1939.0455000000002,2261.3094,2306.5668,2004.3306,2028.2598,2254.2867,1823.301
2291.7410999999997,2394.7407,2108.3706,2137.2417,2248.5645,2401.5033,2368.4706,1939.5657,2262.0897,2307.3471,2006.6715000000002,2028.78,2253.5064,1823.8211999999999
2289.1401,2396.0412,2108.1105000000002,2135.6811,2248.3044000000004,2403.0639,2368.7307,1940.346,2261.5695,2308.6476000000002,2005.6311,2028.5199000000002,2253.7664999999997,1821.2202
2288.6199,2393.1801,2107.5903,2134.1205,2247.2639999999997,2402.0235000000002,2368.7307,1940.346,2260.7892,2309.1677999999997,2005.1109000000001,2030.6007000000002,2253.7664999999997,1821.4803000000002
2291.481,2393.1801,2107.8504,2133.3402,2247.7842,2401.7634000000003,2367.9504,1940.0859,2261.8296,2308.3875,2006.1513,2029.0401000000002,2254.0266,1823.301
2292.0012,2396.3013,2107.8504,2134.9008,2248.5645,2402.8038,2368.9908,1940.346,2262.0897,2307.087,2005.8912,2026.6992,2253.7664999999997,1822.2606
2290.9608,2393.1801,2107.8504,2135.4210000000003,2247.0039,2401.5033,2367.6902999999998,1941.1263000000001,2261.5695,2306.5668,2005.6311,2028.2598,2254.8069000000005,1822.7808
2290.7007,2391.0993000000003,2106.81,2139.0624,2247.2639999999997,2401.5033,2367.9504,1940.8662,2260.7892,2307.3471,2004.8508,2028.78,2253.7664999999997,1822.2606
2292.0012,2393.7003,2106.81,2141.1432,2248.8246,2401.5033,2368.9908,1939.8258,2260.5290999999997,2307.6072000000004,2004.8508,2027.4795000000001,2253.2463000000002,1822.0005
2291.481,2393.7003,2106.2898000000005,2136.9816,2248.8246,2400.4629,2368.4706,1940.0859,2261.5695,2307.6072000000004,2005.371,2027.2194,2253.7664999999997,1823.5611000000001
2289.4002,2392.3998,2106.0297,2137.5018,2247.5241,2400.9831000000004,2369.2509,1939.8258,2262.3498000000004,2307.8673000000003,2004.8508,2027.2194,2253.5064,1822.7808
2289.9204,2392.3998,2107.8504,2138.8023000000003,2247.7842,2400.2028,2369.5110000000004,1940.0859,2261.8296,2307.6072000000004,2006.4114,2027.7396,2254.0266,1822.5207
2290.4406000000004,2394.4806000000003,2107.5903,2135.9412,2249.0847000000003,2400.723,2369.5110000000004,1940.8662,2261.0493,2307.6072000000004,2005.1109000000001,2027.7396,2252.7261,1822.7808
2289.4002,2394.4806000000003,2107.8504,2133.3402,2248.0443,2402.8038,2368.9908,1939.8258,2262.3498000000004,2307.8673000000003,2005.1109000000001,2027.4795000000001,2253.5064,1823.301
2290.1805,2392.3998,2108.8908,2133.3402,2248.0443,2402.2835999999998,2368.9908,1940.346,2264.1705,2307.3471,2007.1917,2029.0401000000002,2254.8069000000005,1823.8211999999999
2291.7410999999997,2394.2205000000004,2107.0701000000004,2134.9008,2249.6049,2402.0235000000002,2369.7711,1941.3863999999999,2263.6503,2306.3067,2006.1513,2028.78,2253.7664999999997,1822.5207
2291.481,2395.7810999999997,2107.3302000000003,2134.1205,2248.5645,2401.7634000000003,2367.6902999999998,1941.3863999999999,2261.8296,2307.3471,2006.6715000000002,2027.7396,2254.5468,1822.5207
2290.4406000000004,2392.92,2106.5499,2135.9412,2247.0039,2401.5033,2367.9504,1941.6465,2261.3094,2308.3875,2006.4114,2028.2598,2254.2867,1822.0005
2290.7007,2391.8796,2106.0297,2139.0624,2247.5241,2401.2432,2369.7711,1941.1263000000001,2261.8296,2307.8673000000003,2005.6311,2028.78,2252.7261,1821.2202
2291.7410999999997,2393.9604,2107.3302000000003,2137.2417,2249.3448000000003,2399.9427,2368.4706,1940.8662,2262.87,2307.6072000000004,2006.1513,2027.4795000000001,2254.2867,1821.7404
2290.9608,2394.4806000000003,2106.5499,2136.2013,2249.3448000000003,2401.5033,2368.7307,1939.3056,2261.8296,2308.6476000000002,2005.8912,2026.9593000000002,2255.067,1822.2606
2290.4406000000004,2392.1397,2108.3706,2136.7214999999997,2247.0039,2401.2432,2368.2105,1938.2652,2261.3094,2308.3875,2007.1917,2028.2598,2254.5468,1822.5207
2291.2209000000003,2392.92,2109.1509,2136.2013,2247.7842,2400.723,2368.7307,1938.5253000000002,2261.8296,2307.3471,2006.4114,2027.2194,2252.7261,1821.2202
2291.2209000000003,2395.0008,2107.0701000000004,2135.9412,2250.3852,2402.5437,2370.5514000000003,1939.5657,2262.0897,2308.3875,2004.8508,2027.2194,2251.6857,1821.4803000000002
2290.7007,2394.2205000000004,2107.5903,2134.6407,2248.5645,2402.8038,2368.9908,1941.1263000000001,2262.0897,2309.1677999999997,2005.6311,2028.78,2255.067,1824.3414
2288.88,2393.7003,2108.3706,2135.1609000000003,2247.2639999999997,2402.2835999999998,2368.7307,1940.8662,2262.3498000000004,2307.3471,2005.1109000000001,2028.2598,2256.1074,1823.8211999999999
2288.88,2393.9604,2108.6306999999997,2135.4210000000003,2247.7842,2401.5033,2368.9908,1940.346,2262.6099,2306.8269000000005,2006.1513,2028.78,2254.2867,1822.2606
2290.9608,2393.7003,2107.8504,2134.6407,2247.5241,2402.0235000000002,2369.2509,1941.6465,2262.3498000000004,2308.1274,2005.371,2026.9593000000002,2253.5064,1822.5207
2290.9608,2393.9604,2107.5903,2137.5018,2249.0847000000003,2402.5437,2368.9908,1940.8662,2261.0493,2309.1677999999997,2003.2902,2024.8785,2254.5468,1822.5207
2291.481,2394.2205000000004,2107.3302000000003,2137.7619000000004,2249.8650000000002,2400.9831000000004,2367.1701000000003,1939.5657,2260.7892,2308.3875,2005.8912,2027.9997,2255.5872000000004,1824.3414
2291.2209000000003,2393.9604,2106.0297,2136.2013,2249.8650000000002,2401.7634000000003,2368.2105,1939.3056,2260.7892,2306.8269000000005,2007.4518000000003,2028.5199000000002,2254.0266,1823.5611000000001
2290.1805,2393.9604,2106.2898000000005,2136.9816,2250.1251,2402.0235000000002,2368.9908,1938.5253000000002,2259.4887,2307.6072000000004,2007.4518000000003,2026.9593000000002,2252.9862,1822.5207
2291.481,2393.4402000000005,2107.8504,2137.2417,2249.3448000000003,2400.2028,2368.7307,1939.5657,2260.7892,2308.3875,2007.4518000000003,2027.9997,2252.9862,1823.8211999999999
2292.0012,2393.9604,2107.5903,2136.7214999999997,2248.8246,2401.7634000000003,2369.5110000000004,1940.6061000000002,2262.3498000000004,2307.6072000000004,2006.1513,2027.9997,2252.4660000000003,1822.5207
2291.2209000000003,2394.4806000000003,2107.5903,2134.3806000000004,2247.2639999999997,2402.5437,2368.9908,1939.3056,2260.7892,2307.8673000000003,2006.9316,2028.78,2254.5468,1823.0409000000002
2289.9204,2394.2205000000004,2105.5095,2134.3806000000004,2247.7842,2401.7634000000003,2369.7711,1940.6061000000002,2260.0089000000003,2307.6072000000004,2005.8912,2028.78,2255.3271,1822.7808
2289.9204,2393.7003,2106.5499,2136.2013,2248.8246,2400.9831000000004,2369.5110000000004,1942.6869000000002,2262.3498000000004,2307.087,2005.371,2027.9997,2255.067,1821.2202
2292.0012,2393.7003,2107.8504,2135.9412,2247.7842,2401.5033,2368.4706,1942.1667,2262.87,2308.3875,2007.1917,2029.0401000000002,2255.5872000000004,1822.7808
2292.2613,2394.4806000000003,2105.2494,2136.9816,2248.3044000000004,2402.8038,2370.0312,1940.0859,2260.7892,2308.9077,2005.8912,2029.5603,2255.067,1823.8211999999999
2290.9608,2394.2205000000004,2107.3302000000003,2136.9816,2248.3044000000004,2400.723,2369.2509,1938.2652,2262.0897,2307.8673000000003,2005.8912,2028.78,2254.8069000000005,1823.5611000000001
2291.7410999999997,2392.3998,2107.8504,2136.2013,2248.8246,2399.4225,2369.2509,1938.5253000000002,2263.6503,2307.3471,2006.1513,2027.7396,2254.2867,1822.5207
2292.2613,2392.3998,2105.7696,2136.4614,2248.5645,2401.2432,2369.7711,1938.2652,2261.8296,2307.087,2005.6311,2029.0401000000002,2253.2463000000002,1821.4803000000002
2290.9608,2394.4806000000003,2108.1105000000002,2135.4210000000003,2247.0039,2401.2432,2368.2105,1937.7450000000001,2260.7892,2307.3471,2006.6715000000002,2029.0401000000002,2254.5468,1822.5207
2290.7007,2395.0008,2108.6306999999997,2135.9412,2248.0443,2401.2432,2368.9908,1938.5253000000002,2262.87,2307.6072000000004,2005.371,2026.9593000000002,2254.8069000000005,1823.5611000000001
2291.7410999999997,2393.7003,2107.3302000000003,2135.6811,2248.3044000000004,2402.2835999999998,2369.2509,1939.8258,2263.1301000000003,2306.5668,2006.4114,2028.5199000000002,2254.0266,1823.301
2290.1805,2392.92,2106.5499,2134.1205,2248.0443,2403.0639,2368.9908,1940.0859,2260.7892,2306.8269000000005,2006.9316,2027.7396,2254.8069000000005,1822.5207
2289.1401,2394.2205000000004,2107.3302000000003,2135.1609000000003,2248.3044000000004,2401.5033,2369.2509,1939.8258,2259.7488000000003,2307.6072000000004,2005.6311,2026.4391,2255.3271,1822.5207
2290.9608,2393.4402000000005,2107.8504,2134.9008,2247.2639999999997,2400.2028,2367.1701000000003,1942.1667,2261.8296,2307.087,2006.1513,2027.7396,2256.3675,1823.5611000000001
2290.4406000000004,2392.6599,2106.81,2134.9008,2247.7842,2402.2835999999998,2367.9504,1942.4268000000002,2262.0897,2307.6072000000004,2005.6311,2026.6992,2255.8473000000004,1823.5611000000001
2289.6603,2393.1801,2107.3302000000003,2135.9412,2248.5645,2402.0235000000002,2369.5110000000004,1939.5657,2261.8296,2309.4279,2005.8912,2027.2194,2253.5064,1824.0813
2290.9608,2393.4402000000005,2107.8504,2135.9412,2248.5645,2399.6826,2368.2105,1938.2652,2263.6503,2309.1677999999997,2005.6311,2029.3002000000001,2253.7664999999997,1824.0813
2291.481,2393.4402000000005,2107.0701000000004,2136.4614,2248.0443,2400.4629,2368.4706,1938.2652,2263.1301000000003,2308.1274,2005.1109000000001,2028.78,2254.2867,1822.2606
2291.2209000000003,2392.92,2106.81,2135.4210000000003,2248.0443,2401.7634000000003,2368.9908,1939.0455000000002,2260.7892,2308.3875,2006.9316,2028.2598,2254.0266,1823.0409000000002
2290.4406000000004,2394.4806000000003,2106.0297,2135.9412,2248.3044000000004,2403.324,2370.2913000000003,1940.0859,2261.0493,2308.6476000000002,2006.4114,2028.2598,2252.7261,1823.0409000000002
2289.9204,2396.0412,2107.5903,2136.4614,2248.5645,2402.5437,2369.2509,1940.8662,2262.3498000000004,2308.1274,2005.6311,2028.2598,2254.2867,1822.7808
2291.2209000000003,2394.7407,2108.6306999999997,2136.2013,2249.0847000000003,2401.2432,2367.6902999999998,1940.6061000000002,2262.0897,2307.6072000000004,2005.6311,2027.4795000000001,2254.5468,1823.0409000000002
2290.9608,2393.1801,2107.0701000000004,2136.9816,2248.5645,2403.0639,2369.7711,1940.346,2261.0493,2307.6072000000004,2004.3306,2027.2194,2252.2059,1821.2202
2290.4406000000004,2392.3998,2108.1105000000002,2136.2013,2247.5241,2401.5033,2369.5110000000004,1941.3863999999999,2261.8296,2308.9077,2004.8508,2029.0401000000002,2254.0266,1822.5207
2291.7410999999997,2393.7003,2108.3706,2136.4614,2248.8246,2399.6826,2368.9908,1940.8662,2262.6099,2308.3875,2005.6311,2029.0401000000002,2254.8069000000005,1823.5611000000001
2293.0416,2393.9604,2107.0701000000004,2136.4614,2248.8246,2400.723,2369.2509,1939.0455000000002,2262.3498000000004,2306.8269000000005,2006.1513,2028.2598,2252.7261,1822.5207
2292.5214,2392.6599,2107.5903,2134.3806000000004,2247.2639999999997,2400.723,2367.9504,1939.0455000000002,2262.0897,2307.8673000000003,2006.6715000000002,2027.9997,2253.5064,1823.301
2290.7007,2393.7003,2108.1105000000002,2136.7214999999997,2248.3044000000004,2400.2028,2367.6902999999998,1939.8258,2262.0897,2307.6072000000004,2004.8508,2027.7396,2254.8069000000005,1823.5611000000001
2290.9608,2395.2609,2107.3302000000003,2136.7214999999997,2248.5645,2400.4629,2367.9504,1939.5657,2261.8296,2306.8269000000005,2007.1917,2028.78,2254.0266,1823.0409000000002
2289.9204,2395.521,2105.7696,2134.9008,2247.5241,2402.8038,2369.7711,1939.8258,2261.3094,2307.087,2007.7119,2028.2598,2252.4660000000003,1822.5207
2288.3598,2394.7407,2107.5903,2136.9816,2247.5241,2402.5437,2369.2509,1940.0859,2261.3094,2307.8673000000003,2004.8508,2027.2194,2253.5064,1823.5611000000001
2289.6603,2393.9604,2109.1509,2136.4614,2248.0443,2400.2028,2367.1701000000003,1940.346,2261.0493,2309.1677999999997,2004.5907000000002,2028.2598,2254.8069000000005,1824.0813
2290.7007,2394.4806000000003,2107.0701000000004,2134.3806000000004,2247.7842,2401.2432,2369.2509,1940.8662,2261.3094,2309.688,2005.371,2027.9997,2252.4660000000003,1822.2606
2290.7007,2393.4402000000005,2108.6306999999997,2135.4210000000003,2247.5241,2401.7634000000003,2369.7711,1941.3863999999999,2262.3498000000004,2307.6072000000004,2006.1513,2027.4795000000001,2252.9862,1822.7808
2290.9608,2391.3594000000003,2108.1105000000002,2138.022,2248.3044000000004,2399.9427,2369.5110000000004,1942.1667,2262.87,2307.3471,2005.371,2027.4795000000001,2255.3271,1822.7808
2292.2613,2391.6195,2105.2494,2138.5422000000003,2247.7842,2400.2028,2369.7711,1940.346,2261.8296,2309.4279,2005.8912,2026.9593000000002,2254.0266,1821.4803000000002
2292.5214,2393.4402000000005,2107.8504,2135.9412,2247.2639999999997,2401.2432,2367.9504,1939.3056,2261.8296,2308.1274,2008.2321,2027.2194,2252.9862,1823.0409000000002
,,,,,,,,,,,,,
2289.6603,2394.4806000000003,2106.2898000000005,2134.9008,2249.6049,2399.6826,2370.0312,1938.7854,2263.3902000000003,2308.1274,2006.1513,2029.3002000000001,2254.2867,1823.301
2292.5214,2394.2205000000004,2107.0701000000004,2134.9008,2248.3044000000004,2400.723,2368.9908,1938.5253000000002,2261.0493,2309.4279,2007.4518000000003,2027.9997,2253.2463000000002,1823.301
2291.2209000000003,2395.0008,2106.81,2135.4210000000003,2249.3448000000003,2403.324,2369.5110000000004,1939.8258,2260.269,2308.1274,2004.5907000000002,2026.6992,2253.7664999999997,1822.2606
2290.1805,2393.9604,2107.3302000000003,2134.9008,2249.8650000000002,2402.2835999999998,2368.2105,1941.1263000000001,2262.0897,2307.8673000000003,2004.0705,2028.78,2256.1074,1823.0409000000002
2290.7007,2393.4402000000005,2107.3302000000003,2135.6811,2249.6049,2401.2432,2367.9504,1940.8662,2261.0493,2307.6072000000004,2004.5907000000002,2027.7396,2254.2867,1822.2606
2291.2209000000003,2393.7003,2107.5903,2136.9816,2248.0443,2402.0235000000002,2369.2509,1940.8662,2260.5290999999997,2307.3471,2005.371,2025.6588000000002,2253.7664999999997,1821.7404
2291.2209000000003,2393.1801,2108.3706,2136.2013,2246.4836999999998,2401.7634000000003,2369.5110000000004,1941.9066,2262.6099,2308.6476000000002,2006.1513,2027.2194,2255.5872000000004,1823.0409000000002
2289.9204,2393.4402000000005,2108.3706,2137.2417,2248.0443,2402.2835999999998,2370.0312,1940.8662,2260.7892,2309.1677999999997,2005.6311,2028.2598,2255.067,1821.7404
2289.6603,2393.4402000000005,2108.3706,2138.8023000000003,2249.6049,2401.2432,2368.7307,1938.7854,2260.5290999999997,2308.1274,2006.9316,2029.0401000000002,2254.8069000000005,1822.7808
2291.2209000000003,2394.4806000000003,2107.0701000000004,2137.5018,2249.0847000000003,2400.723,2369.2509,1939.0455000000002,2263.3902000000003,2306.5668,2006.9316,2029.0401000000002,2254.0266,1824.0813
2291.481,2395.521,2107.0701000000004,2135.9412,2248.0443,2401.7634000000003,2369.2509,1939.8258,2263.6503,2306.8269000000005,2006.4114,2029.5603,2254.0266,1822.5207
2291.481,2394.7407,2107.3302000000003,2134.1205,2248.0443,2401.7634000000003,2367.9504,1939.8258,2262.3498000000004,2308.6476000000002,2007.9720000000002,2030.3406,2255.067,1823.0409000000002
2291.481,2394.4806000000003,2106.5499,2134.6407,2249.6049,2401.7634000000003,2369.5110000000004,1939.3056,2262.3498000000004,2308.1274,2005.8912,2028.78,2253.7664999999997,1822.7808
2289.9204,2394.4806000000003,2108.3706,2134.6407,2248.5645,2400.9831000000004,2368.9908,1939.8258,2262.6099,2306.5668,2005.1109000000001,2027.7396,2254.2867,1821.7404
2289.6603,2393.9604,2107.0701000000004,2135.9412,2247.5241,2400.9831000000004,2368.2105,1940.8662,2262.0897,2306.8269000000005,2005.371,2026.179,2253.7664999999997,1821.7404
2291.7410999999997,2393.9604,2106.0297,2139.0624,2247.7842,2401.5033,2368.7307,1940.346,2260.7892,2306.3067,2005.1109000000001,2026.179,2251.6857,1822.0005
2292.7815,2392.6599,2108.1105000000002,2137.7619000000004,2246.4836999999998,2400.4629,2367.6902999999998,1940.0859,2260.7892,2306.5668,2005.6311,2027.7396,2253.2463000000002,1823.0409000000002
2291.2209000000003,2393.1801,2108.1105000000002,2137.2417,2246.7438,2401.5033,2368.9908,1939.8258,2261.5695,2308.3875,2004.8508,2027.9997,2254.2867,1822.7808
2291.481,2394.4806000000003,2107.5903,2138.8023000000003,2247.7842,2401.5033,2369.5110000000004,1939.3056,2262.0897,2308.6476000000002,2005.371,2029.3002000000001,2253.5064,1822.0005
2292.0012,2395.0008,2106.2898000000005,2136.9816,2247.7842,2401.2432,2368.9908,1939.3056,2262.0897,2307.3471,2005.8912,2029.0401000000002,2254.8069000000005,1821.7404
2290.1805,2396.0412,2106.0297,2134.3806000000004,2248.0443,2401.5033,2369.7711,1939.0455000000002,2262.3498000000004,2307.3471,2004.5907000000002,2028.2598,2255.5872000000004,1823.0409000000002
2290.7007,2395.0008,2108.3706,2131.5195,2248.3044000000004,2400.4629,2367.9504,1939.8258,2262.6099,2307.6072000000004,2005.8912,2028.2598,2255.067,1823.8211999999999
2292.0012,2393.7003,2106.5499,2132.82,2248.5645,2400.9831000000004,2367.6902999999998,1939.8258,2262.0897,2307.6072000000004,2005.8912,2026.4391,2253.7664999999997,1821.2202
2290.9608,2394.4806000000003,2106.5499,2134.6407,2248.3044000000004,2402.0235000000002,2368.4706,1939.5657,2262.0897,2307.6072000000004,2005.8912,2026.9593000000002,2252.9862,1821.7404
2290.1805,2394.7407,2109.1509,2133.8604,2247.7842,2401.7634000000003,2368.2105,1939.8258,2262.3498000000004,2307.6072000000004,2005.6311,2028.2598,2253.7664999999997,1824.0813
2292.0012,2393.4402000000005,2107.3302000000003,2136.7214999999997,2248.0443,2401.7634000000003,2368.9908,1939.8258,2261.5695,2307.3471,2004.3306,2026.9593000000002,2253.7664999999997,1823.0409000000002
2293.5618000000004,2392.1397,2107.0701000000004,2138.022,2247.7842,2400.723,2367.6902999999998,1939.3056,2261.3094,2306.5668,2006.1513,2026.9593000000002,2254.5468,1822.7808
2290.4406000000004,2392.1397,2108.1105000000002,2136.9816,2248.0443,2400.9831000000004,2368.7307,1939.3056,2261.5695,2306.8269000000005,2006.4114,2027.9997,2253.5064,1823.301
2288.88,2392.3998,2107.3302000000003,2137.5018,2247.5241,2401.7634000000003,2369.5110000000004,1939.3056,2261.8296,2307.6072000000004,2005.8912,2028.5199000000002,2252.9862,1822.7808
2292.0012,2393.1801,2106.0297,2136.9816,2248.0443,2401.2432,2367.1701000000003,1939.8258,2262.0897,2307.6072000000004,2006.1513,2027.7396,2255.067,1823.0409000000002
2291.2209000000003,2395.0008,2106.81,2135.4210000000003,2249.0847000000003,2401.5033,2367.4302000000002,1939.3056,2261.3094,2306.8269000000005,2006.1513,2027.7396,2254.5468,1823.0409000000002
2289.4002,2393.9604,2109.1509,2134.3806000000004,2247.2639999999997,2401.5033,2368.7307,1939.5657,2261.5695,2306.8269000000005,2007.4518000000003,2029.3002000000001,2254.0266,1823.0409000000002
2290.4406000000004,2394.2205000000004,2107.5903,2135.1609000000003,2247.0039,2402.2835999999998,2369.7711,1941.9066,2262.3498000000004,2306.8269000000005,2006.4114,2028.2598,2254.2867,1822.0005
2292.5214,2395.0008,2106.2898000000005,2134.9008,2248.5645,2402.5437,2368.7307,1941.3863999999999,2261.5695,2307.087,2004.5907000000002,2027.7396,2254.0266,1821.7404
2293.5618000000004,2393.4402000000005,2107.5903,2132.5598999999997,2247.5241,2401.7634000000003,2366.6499,1939.8258,2261.5695,2307.6072000000004,2004.5907000000002,2027.4795000000001,2254.0266,1824.0813
2292.0012,2394.2205000000004,2106.81,2136.2013,2247.0039,2403.0639,2369.5110000000004,1940.6061000000002,2262.0897,2307.3471,2005.1109000000001,2025.6588000000002,2253.7664999999997,1823.5611000000001
2290.7007,2394.7407,2106.81,2140.1028,2248.0443,2401.2432,2370.5514000000003,1940.8662,2261.5695,2306.5668,2007.1917,2027.2194,2253.7664999999997,1822.5207
2290.7007,2393.4402000000005,2107.3302000000003,2137.5018,2248.5645,2399.1623999999997,2369.5110000000004,1940.0859,2260.5290999999997,2306.8269000000005,2006.6715000000002,2029.3002000000001,2253.2463000000002,1823.0409000000002
2290.7007,2393.9604,2108.1105000000002,2135.6811,2248.0443,2400.723,2370.2913000000003,1938.5253000000002,2261.0493,2308.3875,2005.6311,2027.9997,2253.7664999999997,1822.5207
2290.7007,2393.9604,2108.6306999999997,2135.6811,2247.5241,2400.723,2370.0312,1937.2248,2261.8296,2308.9077,2007.4518000000003,2028.2598,2256.1074,1823.301
2289.9204,2394.4806000000003,2107.3302000000003,2135.4210000000003,2247.7842,2401.2432,2369.2509,1938.7854,2262.3498000000004,2307.087,2005.6311,2029.3002000000001,2255.5872000000004,1823.5611000000001
2290.1805,2395.0008,2107.3302000000003,2132.82,2247.7842,2403.0639,2368.4706,1941.1263000000001,2262.87,2306.5668,2005.1109000000001,2029.0401000000002,2253.7664999999997,1824.6015
2291.481,2394.4806000000003,2107.3302000000003,2132.0397000000003,2248.0443,2403.8442,2369.5110000000004,1941.6465,2261.5695,2308.1274,2006.6715000000002,2027.9997,2252.9862,1824.8616
2291.2209000000003,2394.4806000000003,2107.5903,2135.4210000000003,2248.3044000000004,2402.5437,2369.7711,1940.8662,2260.5290999999997,2308.1274,2005.6311,2027.7396,2253.7664999999997,1822.5207
2291.7410999999997,2394.7407,2108.8908,2135.4210000000003,2247.0039,2400.723,2367.6902999999998,1941.1263000000001,2261.8296,2307.087,2005.8912,2028.2598,2255.5872000000004,1822.5207
2292.2613,2394.2205000000004,2108.1105000000002,2135.1609000000003,2247.5241,2401.7634000000003,2369.2509,1940.8662,2262.3498000000004,2308.1274,2005.8912,2028.2598,2254.0266,1823.5611000000001
2291.481,2392.6599,2108.6306999999997,2139.0624,2248.8246,2401.5033,2369.7711,1939.3056,2261.3094,2309.9481,2005.371,2027.9997,2253.2463000000002,1823.8211999999999
2291.2209000000003,2393.4402000000005,2108.1105000000002,2139.8427,2248.0443,2399.1623999999997,2367.6902999999998,1940.6061000000002,2260.5290999999997,2309.688,2005.6311,2026.6992,2254.5468,1822.7808
2290.9608,2394.7407,2105.7696,2137.2417,2247.0039,2399.1623999999997,2368.9908,1940.0859,2260.0089000000003,2308.3875,2005.371,2026.4391,2254.0266,1821.4803000000002
2292.0012,2393.7003,2107.8504,2134.9008,2246.7438,2400.4629,2370.0312,1938.0051,2261.3094,2308.1274,2006.4114,2028.78,2253.5064,1823.0409000000002
2292.2613,2394.7407,2108.6306999999997,2135.6811,2248.8246,2401.2432,2370.2913000000003,1938.2652,2263.3902000000003,2307.8673000000003,2005.371,2027.9997,2254.5468,1823.8211999999999
2291.481,2395.521,2106.81,2135.1609000000003,2250.1251,2400.9831000000004,2369.2509,1939.3056,2262.3498000000004,2307.087,2005.371,2026.9593000000002,2254.5468,1823.8211999999999
2291.481,2392.92,2107.5903,2132.82,2248.3044000000004,2401.2432,2367.6902999999998,1939.5657,2261.0493,2306.8269000000005,2006.4114,2027.9997,2254.0266,1823.301
2290.4406000000004,2392.6599,2107.8504,2134.3806000000004,2247.5241,2403.324,2368.9908,1940.0859,2261.5695,2307.087,2005.1109000000001,2027.2194,2254.5468,1821.2202
2290.7007,2395.0008,2107.5903,2135.4210000000003,2248.0443,2402.0235000000002,2367.9504,1942.1667,2263.1301000000003,2308.3875,2006.4114,2028.78,2256.3675,1823.301
2291.7410999999997,2395.521,2107.0701000000004,2135.1609000000003,2248.3044000000004,2400.9831000000004,2368.2105,1942.4268000000002,2263.1301000000003,2308.9077,2006.4114,2029.3002000000001,2255.3271,1824.3414
2291.7410999999997,2394.4806000000003,2106.81,2137.2417,2247.7842,2402.0235000000002,2370.5514000000003,1939.5657,2260.7892,2307.6072000000004,2005.6311,2027.2194,2252.7261,1822.2606
2290.4406000000004,2393.7003,2107.5903,2138.5422000000003,2248.0443,2399.9427,2370.5514000000003,1938.7854,2261.3094,2307.3471,2007.4518000000003,2026.9593000000002,2254.2867,1822.2606
2289.6603,2394.4806000000003,2106.81,2139.5826,2249.0847000000003,2399.4225,2370.2913000000003,1939.3056,2262.0897,2308.6476000000002,2006.6715000000002,2027.9997,2255.067,1821.4803000000002
2290.9608,2394.2205000000004,2106.81,2136.7214999999997,2248.0443,2400.723,2368.9908,1938.7854,2261.5695,2309.4279,2006.6715000000002,2027.9997,2254.2867,1822.0005
2291.481,2392.6599,2107.0701000000004,2134.6407,2247.7842,2401.2432,2369.5110000000004,1938.5253000000002,2262.3498000000004,2308.9077,2006.9316,2027.2194,2253.2463000000002,1823.5611000000001
2291.2209000000003,2393.7003,2106.81,2136.9816,2248.5645,2401.7634000000003,2370.2913000000003,1939.3056,2262.87,2307.8673000000003,2005.6311,2027.9997,2253.2463000000002,1823.301
2292.2613,2394.7407,2108.1105000000002,2136.2013,2247.7842,2401.5033,2369.2509,1939.8258,2261.0493,2307.6072000000004,2006.1513,2029.3002000000001,2255.8473000000004,1822.7808
2292.0012,2393.9604,2106.5499,2136.4614,2248.5645,2402.2835999999998,2370.2913000000003,1940.346,2260.0089000000003,2307.8673000000003,2006.1513,2028.2598,2255.3271,1822.0005
2290.4406000000004,2393.4402000000005,2107.0701000000004,2137.2417,2249.0847000000003,2402.0235000000002,2369.2509,1941.1263000000001,2262.6099,2308.3875,2005.6311,2029.0401000000002,2254.5468,1822.7808
2290.4406000000004,2394.4806000000003,2108.8908,2135.1609000000003,2246.7438,2401.7634000000003,2367.9504,1941.3863999999999,2263.6503,2308.3875,2005.8912,2028.5199000000002,2255.067,1823.5611000000001
2290.7007,2394.7407,2107.8504,2136.2013,2246.7438,2401.5033,2369.7711,1940.0859,2260.5290999999997,2307.8673000000003,2006.1513,2027.4795000000001,2254.0266,1821.7404
2290.7007,2394.2205000000004,2107.8504,2137.7619000000004,2248.5645,2400.2028,2369.2509,1939.0455000000002,2260.0089000000003,2308.1274,2006.4114,2028.78,2253.7664999999997,1822.0005
2291.2209000000003,2394.2205000000004,2107.0701000000004,2137.2417,2249.6049,2400.723,2368.2105,1939.0455000000002,2262.0897,2307.8673000000003,2004.3306,2028.5199000000002,2252.7261,1822.7808
2291.7410999999997,2394.2205000000004,2107.3302000000003,2136.7214999999997,2248.5645,2401.2432,2368.7307,1938.7854,2261.8296,2307.8673000000003,2006.4114,2026.6992,2252.4660000000003,1822.0005
2291.7410999999997,2394.4806000000003,2108.3706,2136.4614,2247.5241,2400.9831000000004,2369.2509,1939.5657,2260.5290999999997,2308.3875,2008.4922000000001,2025.9189,2254.8069000000005,1822.0005
2290.7007,2394.2205000000004,2108.3706,2136.7214999999997,2248.5645,2400.9831000000004,2370.5514000000003,1939.8258,2262.0897,2307.8673000000003,2005.8912,2026.4391,2254.8069000000005,1822.5207
2290.4406000000004,2392.6599,2108.3706,2135.1609000000003,2247.7842,2400.9831000000004,2368.9908,1939.5657,2264.1705,2307.087,2006.4114,2029.0401000000002,2254.0266,1823.301
2290.9608,2392.1397,2106.81,2135.1609000000003,2246.7438,2401.7634000000003,2367.9504,1940.0859,2262.6099,2307.087,2006.4114,2028.2598,2252.7261,1823.5611000000001
2290.9608,2393.4402000000005,2107.3302000000003,2138.5422000000003,2247.7842,2401.2432,2369.5110000000004,1940.8662,2260.7892,2307.6072000000004,2005.1109000000001,2026.6992,2252.9862,1823.301
2290.7007,2393.9604,2108.6306999999997,2138.022,2248.0443,2400.9831000000004,2369.5110000000004,1941.6465,2261.8296,2308.3875,2005.1109000000001,2027.7396,2256.1074,1823.301
2289.4002,2394.4806000000003,2107.5903,2135.6811,2248.0443,2404.1043,2369.5110000000004,1941.1263000000001,2262.0897,2308.3875,2004.3306,2027.4795000000001,2255.5872000000004,1822.7808
2290.4406000000004,2394.4806000000003,2107.8504,2135.6811,2247.2639999999997,2403.324,2368.4706,1939.8258,2261.3094,2307.3471,2005.6311,2028.5199000000002,2254.5468,1823.8211999999999
2290.4406000000004,2394.4806000000003,2107.5903,2136.7214999999997,2247.5241,2400.723,2368.9908,1939.0455000000002,2262.87,2307.6072000000004,2006.1513,2029.3002000000001,2255.067,1823.301
2289.4002,2395.0008,2107.0701000000004,2137.2417,2248.3044000000004,2401.2432,2369.5110000000004,1938.7854,2262.87,2308.1274,2005.6311,2028.2598,2254.5468,1822.0005
2290.4406000000004,2395.0008,2107.5903,2135.9412,2248.0443,2401.5033,2367.9504,1939.8258,2261.8296,2307.087,2006.9316,2027.7396,2253.2463000000002,1823.0409000000002
2290.4406000000004,2396.3013,2106.2898000000005,2136.4614,2247.2639999999997,2401.5033,2370.0312,1939.8258,2262.0897,2306.0466,2005.8912,2029.0401000000002,2252.2059,1823.0409000000002
2291.2209000000003,2395.521,2107.3302000000003,2137.2417,2247.2639999999997,2400.4629,2370.2913000000003,1939.0455000000002,2262.0897,2307.3471,2004.8508,2030.0805,2253.7664999999997,1822.7808
2291.7410999999997,2393.1801,2107.5903,2135.6811,2248.3044000000004,2401.2432,2369.2509,1940.6061000000002,2261.0493,2307.8673000000003,2005.8912,2026.4391,2255.067,1821.2202
2290.7007,2392.92,2106.0297,2136.7214999999997,2248.8246,2403.0639,2370.2913000000003,1941.1263000000001,2260.5290999999997,2306.5668,2005.8912,2024.6184,2255.067,1820.4399
2290.4406000000004,2391.3594000000003,2107.8504,2137.2417,2247.7842,2402.2835999999998,2369.7711,1940.6061000000002,2262.3498000000004,2306.5668,2005.6311,2027.9997,2255.8473000000004,1824.0813
2290.7007,2392.3998,2108.8908,2138.022,2247.7842,2401.7634000000003,2368.9908,1941.9066,2262.87,2307.8673000000003,2004.5907000000002,2028.78,2255.067,1822.7808
2290.7007,2394.2205000000004,2107.5903,2138.022,2248.3044000000004,2400.9831000000004,2368.9908,1942.1667,2261.8296,2307.8673000000003,2006.1513,2026.9593000000002,2254.0266,1820.9601000000002
2290.9608,2393.4402000000005,2106.2898000000005,2135.9412,2248.5645,2400.723,2369.7711,1940.0859,2262.0897,2307.3471,2006.9316,2026.4391,2252.9862,1824.3414
2290.1805,2393.7003,2107.0701000000004,2135.9412,2248.3044000000004,2402.2835999999998,2370.0312,1938.2652,2262.3498000000004,2307.6072000000004,2005.1109000000001,2026.9593000000002,2252.4660000000003,1823.5611000000001
2290.1805,2394.4806000000003,2108.6306999999997,2134.6407,2247.2639999999997,2401.5033,2368.2105,1939.3056,2261.8296,2308.6476000000002,2006.6715000000002,2028.5199000000002,2254.0266,1821.4803000000002
2291.481,2395.2609,2105.7696,2134.1205,2248.0443,2401.2432,2368.7307,1940.6061000000002,2261.8296,2308.3875,2005.8912,2028.5199000000002,2252.7261,1823.0409000000002
2291.7410999999997,2395.0008,2105.5095,2134.3806000000004,2248.5645,2401.2432,2368.7307,1940.6061000000002,2261.8296,2307.3471,2004.8508,2027.7396,2251.9458,1823.8211999999999
2291.2209000000003,2393.7003,2108.1105000000002,2134.1205,2247.7842,2399.9427,2367.9504,1941.3863999999999,2262.0897,2307.6072000000004,2006.6715000000002,2028.2598,2254.8069000000005,1822.0005
2290.7007,2393.4402000000005,2107.0701000000004,2137.5018,2247.7842,2401.2432,2369.2509,1940.6061000000002,2261.8296,2307.6072000000004,2006.4114,2027.2194,2255.067,1821.4803000000002
2291.481,2392.3998,2106.5499,2137.2417,2248.5645,2401.5033,2368.4706,1938.7854,2261.0493,2307.6072000000004,2005.8912,2026.9593000000002,2253.7664999999997,1823.301
2292.0012,2392.6599,2107.8504,2135.4210000000003,2249.0847000000003,2401.2432,2369.7711,1940.0859,2261.3094,2307.087,2004.5907000000002,2027.9997,2254.0266,1823.301
2291.481,2393.1801,2109.6711,2137.5018,2248.0443,2401.2432,2370.8115,1941.1263000000001,2262.0897,2307.087,2005.1109000000001,2028.2598,2254.0266,1822.5207
2291.7410999999997,2393.1801,2108.3706,2136.9816,2246.7438,2400.2028,2368.9908,1940.0859,2262.6099,2308.3875,2006.6715000000002,2026.9593000000002,2252.9862,1822.7808
2289.6603,2393.9604,2106.5499,2135.4210000000003,2248.3044000000004,2400.9831000000004,2369.7711,1940.346,2262.3498000000004,2309.1677999999997,2006.1513,2027.7396,2253.2463000000002,1822.2606
2289.1401,2393.9604,2108.6306999999997,2134.9008,2248.8246,2400.723,2370.2913000000003,1941.3863999999999,2262.6099,2307.8673000000003,2006.6715000000002,2030.3406,2255.5872000000004,1823.8211999999999
2290.9608,2394.4806000000003,2107.5903,2134.9008,2247.7842,2399.9427,2368.9908,1941.1263000000001,2263.1301000000003,2306.8269000000005,2005.371,2028.5199000000002,2254.8069000000005,1824.6015
2290.1805,2395.2609,2105.7696,2134.6407,2248.5645,2402.0235000000002,2369.2509,1939.8258,2262.6099,2307.6072000000004,2004.0705,2027.9997,2252.4660000000003,1822.7808
2289.9204,2393.4402000000005,2108.8908,2133.0801,2249.0847000000003,2402.0235000000002,2369.7711,1940.0859,2262.3498000000004,2307.6072000000004,2006.6715000000002,2030.3406,2254.8069000000005,1823.0409000000002
2291.2209000000003,2392.3998,2109.6711,2135.6811,2249.3448000000003,2401.5033,2370.8115,1941.1263000000001,2261.5695,2307.087,2005.1109000000001,2028.78,2255.5872000000004,1822.7808
2291.7410999999997,2393.4402000000005,2107.0701000000004,2138.8023000000003,2248.3044000000004,2401.5033,2370.2913000000003,1940.346,2261.5695,2307.8673000000003,2004.3306,2027.4795000000001,2253.5064,1822.7808
2291.2209000000003,2392.6599,2106.81,2137.2417,2248.0443,2400.4629,2369.7711,1940.8662,2261.0493,2308.6476000000002,2006.1513,2027.9997,2254.0266,1822.2606
2290.7007,2392.1397,2107.5903,2136.9816,2248.5645,2399.9427,2369.5110000000004,1940.8662,2260.5290999999997,2308.3875,2005.1109000000001,2027.2194,2255.5872000000004,1821.7404
2291.2209000000003,2392.6599,2107.5903,2138.2821,2247.5241,2400.723,2367.9504,1939.8258,2260.7892,2308.6476000000002,2004.8508,2026.4391,2255.067,1823.301
2291.2209000000003,2393.9604,2106.5499,2137.5018,2248.0443,2402.0235000000002,2369.5110000000004,1939.3056,2260.5290999999997,2307.3471,2005.6311,2026.9593000000002,2252.4660000000003,1822.2606
2289.9204,2395.521,2107.5903,2135.6811,2249.0847000000003,2401.5033,2368.9908,1940.0859,2261.5695,2306.3067,2006.4114,2029.8204,2254.2867,1821.7404
2289.9204,2395.0008,2108.3706,2134.1205,2247.2639999999997,2400.723,2367.9504,1941.1263000000001,2263.3902000000003,2307.3471,2006.1513,2030.3406,2256.8877,1823.301
