Timestamp,F3,FC5,AF3,F7,T7,P7,O1,O2,P8,T8,F8,AF4,FC6,F4
0.0,4490.55,4704.75,4124.88,4211.07,4405.38,4708.83,4644.06,3806.64,4435.9800000000005,4528.8,3932.1,3976.4700000000003,4420.17,3573.57
0.0078125,4489.02,4701.18,4123.86,4210.05,4407.93,4709.85,4644.57,3804.6,4433.43,4529.82,3930.06,3974.94,4419.15,3573.06
0.015625,4489.53,4700.16,4129.47,4212.6,4409.97,4706.79,4646.1,3800.01,4433.43,4527.78,3931.08,3969.84,4418.13,3573.57
0.0234375,4493.1,4698.12,4130.49,4209.54,4406.91,4704.24,4644.57,3803.07,4435.47,4528.8,3932.61,3969.84,4417.62,3571.53
0.03125,4490.04,4698.63,4129.47,4205.46,4405.89,4706.79,4642.02,3804.09,4435.47,4529.82,3932.61,3970.86,4416.09,3568.4700000000003
0.0390625,4487.49,4700.67,4127.9400000000005,4203.93,4406.91,4706.79,4643.04,3801.54,4436.49,4527.27,3933.63,3968.82,4417.11,3571.02
0.046875,4490.04,4702.71,4125.9,4206.99,4407.93,4704.75,4646.1,3801.54,4437.0,4525.74,3930.57,3968.82,4419.15,3572.55
0.0546875,4490.55,4703.7300000000005,4126.92,4207.5,4407.42,4705.77,4644.57,3801.54,4434.96,4528.29,3930.57,3973.92,4417.62,3570.51
0.0625,4488.51,4701.6900000000005,4127.9400000000005,4200.87,4405.38,4707.3,4642.53,3802.56,4434.96,4528.29,3933.63,3973.92,4419.66,3570.0
0.0703125,4488.51,4702.71,4125.39,4205.46,4407.42,4709.85,4647.63,3804.6,4435.9800000000005,4524.72,3929.55,3971.37,4420.17,3571.53
0.078125,4490.04,4703.22,4121.31,4209.54,4408.95,4709.85,4648.14,3806.13,4435.47,4526.25,3929.04,3974.94,4419.15,3571.53
0.0859375,4488.0,4699.14,4120.29,4204.95,4406.91,4707.3,4644.06,3807.15,4436.49,4530.33,3933.12,3975.96,4420.68,3571.02
0.09375,4489.02,4697.61,4125.39,4209.03,4405.89,4707.81,4644.57,3807.15,4437.51,4529.31,3934.65,3976.4700000000003,4419.66,3571.02
0.1015625,4494.63,4700.16,4124.37,4212.6,4405.89,4709.85,4643.55,3806.13,4436.49,4527.78,3934.65,3978.51,4417.62,3571.02
0.109375,4493.61,4699.14,4119.27,4207.5,4405.89,4706.79,4645.08,3805.62,4435.9800000000005,4529.82,3933.63,3977.4900000000002,4417.62,3572.04
0.1171875,4489.53,4696.08,4124.88,4204.95,4405.89,4705.26,4646.61,3806.64,4436.49,4530.84,3933.12,3974.94,4418.64,3571.02
0.125,4490.04,4698.12,4128.45,4206.4800000000005,4406.91,4710.36,4646.1,3805.62,4435.9800000000005,4529.82,3935.16,3975.4500000000003,4418.13,3570.51
0.1328125,4489.53,4704.24,4124.37,4201.89,4407.93,4710.87,4646.1,3803.07,4433.9400000000005,4529.31,3935.16,3973.41,4417.62,3573.57
0.140625,4489.02,4703.22,4125.39,4197.81,4407.42,4706.79,4645.08,3805.11,4434.45,4528.8,3934.14,3968.31,4418.64,3573.57
0.1484375,4488.0,4699.14,4126.92,4200.87,4408.4400000000005,4709.34,4644.06,3808.17,4436.49,4529.31,3933.12,3972.39,4418.64,3570.51
0.15625,4487.49,4701.18,4125.39,4199.85,4409.46,4708.32,4646.1,3806.13,4436.49,4529.31,3932.61,3976.4700000000003,4417.62,3571.53
0.1640625,4490.55,4704.24,4125.39,4198.32,4406.91,4703.22,4645.08,3806.64,4435.9800000000005,4528.29,3932.1,3974.4300000000003,4417.62,3573.57
0.171875,4490.04,4702.2,4123.35,4206.4800000000005,4407.42,4704.75,4644.06,3809.19,4434.96,4527.78,3931.59,3979.53,4420.17,3568.98
0.1796875,4488.51,4700.16,4120.29,4209.54,4407.93,4706.79,4645.59,3809.19,4435.9800000000005,4525.74,3931.59,3982.59,4419.66,3570.51
0.1875,4492.08,4702.71,4122.84,4205.46,4405.89,4706.28,4646.61,3809.19,4438.02,4525.2300000000005,3931.59,3976.4700000000003,4416.6,3575.1
0.1953125,4492.08,4702.71,4126.41,4208.52,4405.89,4705.26,4646.1,3806.13,4437.51,4528.29,3931.08,3975.4500000000003,4418.13,3573.57
0.203125,4488.51,4699.14,4126.41,4210.05,4406.91,4705.77,4646.1,3801.03,4434.96,4528.29,3931.59,3976.4700000000003,4422.21,3572.04
0.2109375,4491.06,4700.16,4126.92,4204.95,4405.89,4708.32,4646.61,3801.03,4434.96,4527.27,3932.1,3972.39,4421.7,3571.02
0.21875,4495.14,4701.18,4128.45,4202.4,4404.87,4707.81,4645.08,3802.05,4438.53,4528.29,3933.63,3970.35,4418.13,3570.51
0.2265625,4492.59,4701.18,4125.9,4204.4400000000005,4405.38,4706.79,4644.57,3800.01,4437.0,4526.76,3934.14,3968.82,4416.09,3570.51
0.234375,4492.08,4701.18,4127.9400000000005,4203.93,4405.89,4707.3,4645.08,3799.5,4433.43,4525.74,3933.12,3968.82,4417.62,3571.02
0.2421875,4493.1,4699.65,4133.04,4201.38,4406.91,4707.3,4644.06,3802.05,4434.96,4528.8,3933.12,3971.88,4422.21,3573.06
0.25,4490.55,4702.71,4127.43,4206.99,4407.42,4708.32,4647.63,3801.54,4435.47,4528.29,3932.61,3975.96,4418.64,3571.53
0.2578125,4487.49,4705.77,4123.35,4209.03,4404.87,4709.34,4646.61,3802.56,4431.9,4525.74,3931.59,3978.0,4416.09,3571.53
0.265625,4491.06,4703.22,4126.92,4205.97,4405.38,4707.81,4645.08,3804.09,4430.88,4526.76,3929.55,3976.4700000000003,4419.15,3571.02
0.2734375,4492.08,4702.2,4126.41,4209.03,4407.93,4705.77,4647.63,3802.56,4432.41,4528.8,3930.57,3975.96,4419.66,3570.0
0.28125,4487.49,4703.7300000000005,4122.33,4207.5,4406.91,4705.77,4645.59,3805.62,4435.9800000000005,4528.8,3931.59,3979.02,4418.64,3573.06
0.2890625,4487.49,4702.2,4124.88,4206.4800000000005,4405.89,4707.81,4643.04,3806.13,4437.0,4529.31,3931.08,3975.4500000000003,4418.64,3575.61
0.296875,4491.06,4699.65,4131.51,4211.58,4407.42,4708.32,4645.08,3803.58,4437.0,4529.82,3932.61,3972.39,4419.15,3571.02
0.3046875,4490.55,4697.61,4131.0,4210.05,4406.91,4705.77,4647.12,3805.11,4438.53,4529.82,3932.61,3973.41,4418.64,3569.4900000000002
0.3125,4489.02,4698.12,4127.9400000000005,4205.97,4406.4,4706.28,4646.1,3803.58,4439.04,4529.82,3932.61,3972.39,4417.62,3571.02
0.3203125,4490.04,4700.16,4127.9400000000005,4203.42,4405.38,4708.83,4645.08,3801.03,4436.49,4529.82,3935.16,3970.86,4420.68,3571.02
0.328125,4489.53,4702.2,4129.47,4206.4800000000005,4404.36,4706.79,4645.59,3803.07,4434.96,4529.31,3933.63,3971.88,4422.72,3571.53
0.3359375,4487.49,4701.6900000000005,4130.49,4207.5,4406.91,4704.75,4646.61,3802.56,4435.9800000000005,4529.82,3933.63,3972.39,4419.66,3572.04
0.34375,4488.0,4701.6900000000005,4127.43,4201.89,4410.99,4706.79,4646.61,3801.54,4433.9400000000005,4529.82,3934.65,3970.35,4416.6,3571.02
0.3515625,4489.53,4702.71,4122.84,4204.4400000000005,4407.42,4706.79,4645.59,3805.11,4430.37,4527.78,3932.1,3970.35,4418.13,3572.04
0.359375,4490.04,4701.6900000000005,4122.84,4208.01,4402.32,4706.28,4644.57,3805.62,4432.92,4528.29,3933.63,3973.92,4419.66,3575.61
0.3671875,4490.55,4703.22,4123.86,4205.46,4405.38,4710.87,4646.1,3801.03,4438.02,4528.8,3935.67,3973.92,4418.13,3574.59
0.375,4490.55,4703.7300000000005,4122.33,4208.52,4408.95,4712.4,4649.16,3803.58,4436.49,4527.27,3934.65,3973.41,4417.11,3572.04
0.3828125,4491.06,4701.6900000000005,4124.37,4211.07,4409.46,4706.28,4647.63,3808.6800000000003,4433.43,4527.27,3932.1,3976.4700000000003,4418.13,3570.0
0.390625,4491.06,4703.7300000000005,4129.47,4210.56,4409.46,4703.22,4644.57,3804.6,4433.43,4526.76,3930.57,3977.4900000000002,4417.62,3567.4500000000003
0.3984375,4490.04,4703.22,4125.39,4210.56,4407.42,4704.24,4644.06,3801.03,4433.9400000000005,4527.27,3932.61,3975.96,4417.62,3569.4900000000002
0.40625,4491.06,4698.63,4119.78,4208.01,4407.42,4708.32,4647.63,3803.58,4434.45,4529.31,3934.14,3975.4500000000003,4419.66,3573.57
0.4140625,4492.08,4700.16,4125.9,4207.5,4407.93,4710.87,4645.59,3803.58,4435.9800000000005,4528.29,3931.08,3973.92,4420.17,3572.55
0.421875,4491.06,4701.6900000000005,4129.47,4206.99,4406.91,4707.3,4641.51,3802.05,4435.9800000000005,4527.27,3929.55,3972.39,4420.17,3571.53
0.4296875,4490.04,4700.67,4125.9,4203.93,4407.42,4706.79,4647.12,3800.52,4435.47,4528.8,3929.55,3972.9,4420.17,3572.55
0.4375,4489.02,4702.2,4128.45,4201.89,4405.89,4706.28,4645.59,3798.48,4436.49,4528.8,3932.1,3971.88,4420.17,3571.53
0.4453125,4489.02,4702.71,4129.47,4203.42,4406.4,4706.28,4642.53,3801.03,4435.47,4526.76,3932.1,3970.86,4420.17,3566.43
0.453125,4490.04,4704.24,4127.43,4206.4800000000005,4408.4400000000005,4707.3,4646.1,3802.56,4432.92,4527.27,3931.59,3974.94,4420.17,3568.98
0.4609375,4492.08,4703.7300000000005,4129.47,4197.81,4406.4,4703.22,4644.06,3803.07,4435.47,4528.29,3937.2000000000003,3972.9,4420.68,3577.65
0.46875,4492.08,4703.7300000000005,4125.9,4198.83,4409.46,4704.24,4644.06,3806.64,4437.51,4527.27,3935.67,3968.82,4418.64,3573.06
0.4765625,4491.06,4702.2,4123.35,4209.54,4411.5,4707.81,4647.12,3805.11,4435.9800000000005,4527.27,3931.08,3972.9,4419.66,3568.4700000000003
0.484375,4492.59,4699.65,4122.84,4202.4,4406.4,4706.79,4644.57,3802.05,4436.49,4527.78,3934.14,3974.4300000000003,4423.2300000000005,3573.06
0.4921875,4492.59,4702.2,4121.82,4198.32,4405.38,4707.81,4643.55,3802.56,4434.96,4529.31,3935.16,3969.84,4419.15,3571.02
0.5,4492.08,4701.6900000000005,4124.37,4202.91,4406.91,4708.83,4643.55,3802.56,4432.92,4529.82,3935.16,3968.82,4417.62,3567.96
0.5078125,4489.53,4701.18,4123.86,4203.42,4407.42,4705.77,4644.57,3801.54,4432.92,4528.29,3935.16,3969.84,4419.15,3569.4900000000002
0.515625,4488.0,4704.24,4122.33,4200.87,4406.4,4704.75,4645.08,3801.54,4434.45,4528.8,3932.61,3971.37,4418.13,3571.02
0.5234375,4490.55,4702.71,4122.84,4200.87,4405.89,4707.3,4644.57,3802.56,4435.9800000000005,4530.33,3932.1,3971.37,4420.17,3571.53
0.53125,4491.57,4701.18,4124.88,4208.01,4407.42,4706.79,4645.59,3805.11,4432.41,4528.8,3933.63,3971.88,4420.17,3571.02
0.5390625,4490.04,4701.6900000000005,4126.41,4207.5,4407.42,4704.24,4645.08,3805.11,4432.41,4529.31,3937.2000000000003,3975.4500000000003,4419.66,3573.06
0.546875,4490.55,4701.6900000000005,4126.41,4206.99,4406.4,4705.26,4646.1,3801.54,4435.9800000000005,4529.31,3935.16,3973.92,4419.66,3573.06
0.5546875,4491.57,4700.67,4123.86,4213.11,4406.4,4708.83,4648.14,3803.07,4435.47,4525.74,3932.61,3972.9,4418.64,3570.51
0.5625,4489.53,4700.16,4122.33,4211.58,4404.87,4707.3,4647.12,3807.15,4432.41,4525.74,3934.65,3974.94,4419.66,3570.0
0.5703125,4489.02,4699.65,4125.39,4209.03,4405.38,4707.3,4648.14,3802.56,4434.96,4527.27,3932.61,3969.33,4420.17,3573.06
0.578125,4492.08,4698.12,4127.9400000000005,4208.52,4408.95,4706.79,4647.12,3800.01,4440.06,4526.25,3932.61,3965.76,4418.64,3574.59
0.5859375,4493.61,4700.16,4126.41,4208.01,4408.95,4706.79,4644.57,3803.58,4440.06,4526.25,3934.14,3970.86,4418.64,3574.08
0.59375,4490.55,4702.2,4126.41,4205.97,4406.91,4709.34,4644.57,3802.56,4435.9800000000005,4527.78,3931.59,3971.88,4418.64,3574.08
0.6015625,4489.53,4698.12,4128.45,4200.36,4408.95,4707.3,4644.06,3801.03,4434.45,4527.27,3931.08,3969.33,4418.13,3574.08
0.609375,4487.49,4698.12,4126.92,4204.95,4409.46,4705.77,4646.1,3805.11,4435.47,4526.76,3932.1,3972.9,4419.15,3571.02
0.6171875,4492.08,4702.71,4125.39,4204.95,4406.4,4708.83,4645.59,3804.09,4435.9800000000005,4529.31,3929.04,3975.96,4418.13,3573.57
0.625,4492.59,4702.2,4124.37,4210.56,4407.93,4707.81,4646.1,3806.13,4437.0,4526.76,3931.08,3976.4700000000003,4414.05,3573.57
0.6328125,4492.08,4700.67,4123.35,4215.15,4406.91,4705.26,4647.63,3806.64,4437.51,4525.74,3933.63,3981.57,4416.09,3570.51
0.640625,4489.53,4697.61,4122.84,4210.56,4406.4,4707.3,4646.61,3805.11,4437.0,4527.27,3932.1,3981.06,4418.64,3569.4900000000002
0.6484375,4489.53,4698.12,4124.88,4210.05,4406.4,4705.26,4647.63,3805.62,4435.9800000000005,4528.8,3931.59,3976.4700000000003,4420.17,3572.55
0.65625,4494.12,4701.18,4126.41,4210.05,4405.89,4701.6900000000005,4648.14,3806.13,4436.49,4527.27,3932.1,3974.94,4420.68,3573.06
0.6640625,4493.61,4700.67,4127.43,4205.97,4406.91,4704.75,4646.1,3803.58,4437.51,4527.27,3931.08,3974.94,4420.17,3568.4700000000003
0.671875,4490.04,4698.12,4129.9800000000005,4197.81,4406.91,4707.81,4644.06,3803.07,4436.49,4530.33,3932.1,3972.9,4422.21,3568.4700000000003
0.6796875,4488.51,4701.6900000000005,4127.43,4201.89,4407.42,4707.81,4650.6900000000005,3804.09,4434.96,4529.82,3929.04,3971.37,4416.09,3569.4900000000002
0.6875,4488.0,4706.28,4125.39,4211.58,4406.91,4707.81,4650.18,3804.6,4435.47,4525.74,3930.06,3977.4900000000002,4412.52,3569.4900000000002
0.6953125,4490.04,4703.7300000000005,4124.37,4204.95,4405.38,4706.79,4639.9800000000005,3807.15,4437.51,4525.74,3935.16,3981.06,4419.66,3571.02
0.703125,4493.61,4701.18,4122.33,4203.42,4405.89,4707.3,4643.55,3805.11,4437.0,4527.27,3933.12,3977.4900000000002,4419.15,3569.4900000000002
0.7109375,4493.1,4699.65,4125.39,4210.05,4405.38,4706.79,4647.12,3802.05,4434.96,4526.76,3933.63,3975.96,4416.09,3570.51
0.71875,4491.57,4698.12,4125.9,4203.93,4405.38,4705.26,4646.1,3804.6,4434.45,4527.78,3934.65,3974.4300000000003,4419.66,3573.57
0.7265625,4490.04,4696.59,4122.84,4197.81,4407.42,4707.81,4648.14,3803.58,4433.43,4527.27,3933.63,3970.86,4419.15,3570.0
0.734375,4488.51,4696.08,4123.86,4199.34,4406.91,4706.79,4646.1,3802.05,4432.92,4526.76,3935.67,3969.84,4418.64,3570.0
0.7421875,4489.02,4700.16,4124.88,4198.83,4406.91,4705.77,4644.06,3803.58,4431.39,4527.27,3937.2000000000003,3971.88,4419.66,3573.57
0.75,4488.51,4701.18,4124.88,4196.79,4407.93,4707.3,4643.55,3802.56,4430.88,4527.27,3935.67,3973.92,4418.64,3572.55
0.7578125,4488.0,4703.7300000000005,4125.39,4200.87,4407.42,4707.3,4643.04,3803.07,4433.43,4526.76,3933.63,3973.41,4418.13,3571.53
0.765625,4489.53,4709.85,4125.39,4206.99,4405.38,4706.79,4646.1,3806.64,4433.9400000000005,4527.27,3933.63,3975.4500000000003,4420.17,3573.57
0.7734375,4491.06,4706.28,4124.37,4205.46,4403.85,4705.77,4646.1,3807.66,4434.96,4527.78,3935.16,3975.96,4421.7,3575.61
0.78125,4492.08,4704.24,4123.35,4206.99,4406.4,4706.79,4645.59,3804.09,4435.47,4525.2300000000005,3933.63,3972.39,4419.15,3571.02
0.7890625,4492.59,4705.26,4122.33,4211.07,4409.46,4706.28,4646.1,3805.62,4433.43,4524.21,3932.1,3974.94,4417.62,3568.98
0.796875,4490.04,4700.16,4122.84,4208.01,4407.93,4706.28,4647.12,3808.17,4433.9400000000005,4526.76,3931.08,3974.4300000000003,4420.17,3572.04
0.8046875,4487.49,4698.12,4124.37,4207.5,4405.38,4707.3,4648.14,3805.62,4435.47,4530.33,3929.55,3970.35,4419.66,3571.02
0.8125,4489.53,4699.65,4124.88,4210.05,4404.87,4708.32,4647.63,3805.11,4436.49,4530.33,3931.08,3973.41,4416.09,3568.98
0.8203125,4488.51,4700.16,4127.43,4210.05,4407.42,4708.83,4648.65,3804.6,4437.51,4528.29,3932.61,3974.94,4415.07,3570.51
0.828125,4485.45,4701.18,4132.02,4205.46,4407.42,4705.77,4648.65,3801.54,4437.51,4527.78,3933.12,3971.37,4418.13,3572.04
0.8359375,4486.47,4702.2,4130.49,4202.91,4405.89,4706.28,4647.12,3802.05,4436.49,4528.8,3934.14,3969.84,4420.17,3571.53
0.84375,4488.51,4703.7300000000005,4124.88,4206.4800000000005,4408.95,4711.38,4647.12,3802.05,4435.47,4529.31,3933.12,3973.41,4418.13,3572.04
0.8515625,4487.49,4703.22,4125.39,4203.93,4409.46,4707.3,4645.59,3802.05,4435.47,4529.31,3933.63,3976.98,4418.64,3572.04
0.859375,4486.47,4701.6900000000005,4124.88,4207.5,4405.89,4704.24,4646.1,3805.62,4435.9800000000005,4527.78,3931.59,3977.4900000000002,4420.68,3572.55
0.8671875,4487.49,4700.67,4122.33,4213.11,4405.89,4707.3,4646.1,3805.62,4435.47,4528.8,3931.08,3977.4900000000002,4419.66,3574.08
0.875,4488.0,4700.16,4122.84,4207.5,4407.42,4708.83,4645.59,3805.11,4434.96,4531.35,3935.67,3976.4700000000003,4418.64,3575.61
0.8828125,4486.9800000000005,4701.18,4126.41,4210.05,4406.4,4707.3,4646.61,3805.11,4437.51,4530.84,3935.16,3975.96,4420.68,3574.08
0.890625,4489.02,4701.6900000000005,4127.43,4213.62,4404.87,4704.24,4645.08,3803.58,4437.51,4529.82,3931.59,3978.51,4421.1900000000005,3574.08
0.8984375,4490.04,4696.59,4126.92,4204.95,4406.4,4704.75,4645.59,3804.09,4434.45,4528.8,3931.08,3979.02,4417.11,3571.53
0.90625,4488.51,4695.06,4128.45,4201.38,4407.42,4708.83,4646.61,3804.09,4434.45,4528.29,3933.63,3973.92,4417.11,3567.4500000000003
0.9140625,4488.51,4701.6900000000005,4128.45,4203.93,4406.4,4707.81,4644.57,3802.56,4436.49,4529.31,3935.67,3970.35,4418.13,3569.4900000000002
0.921875,4489.53,4703.22,4125.9,4202.91,4408.4400000000005,4706.28,4644.57,3802.56,4434.45,4530.33,3932.61,3973.41,4417.62,3571.53
0.9296875,4488.0,4699.14,4123.86,4201.38,4407.42,4709.34,4644.57,3803.58,4434.45,4528.8,3929.04,3973.41,4418.64,3571.02
0.9375,4485.96,4701.6900000000005,4121.31,4202.91,4403.34,4709.85,4641.51,3806.13,4437.51,4527.27,3933.63,3972.9,4418.13,3571.02
0.9453125,4485.45,4704.24,4120.29,4205.97,4407.42,4704.75,4641.0,3806.13,4437.0,4527.78,3934.65,3977.4900000000002,4417.62,3571.53
0.953125,4486.9800000000005,4700.16,4121.82,4204.4400000000005,4409.97,4704.75,4644.57,3804.6,4434.96,4527.78,3928.53,3978.0,4422.72,3573.06
0.9609375,4489.02,4699.14,4122.84,4202.4,4405.38,4709.85,4647.12,3806.13,4436.49,4527.78,3927.0,3976.4700000000003,4422.21,3572.04
0.96875,4488.0,4702.2,4123.86,4204.95,4403.85,4708.32,4643.55,3810.7200000000003,4438.53,4529.31,3933.63,3976.98,4419.66,3570.0
0.9765625,4488.0,4702.2,4122.84,4206.99,4407.93,4703.7300000000005,4644.57,3810.7200000000003,4435.9800000000005,4529.31,3934.14,3975.4500000000003,4421.1900000000005,3571.02
0.984375,4489.02,4699.14,4125.39,4207.5,4406.4,4704.75,4649.67,3805.62,4433.9400000000005,4528.29,3931.59,3972.39,4419.15,3572.04
0.9921875,4492.08,4696.59,4126.41,4198.32,4402.83,4704.75,4642.02,3802.56,4438.02,4528.29,3935.16,3971.88,4418.13,3573.06
1.0,4490.55,4699.65,4121.82,4196.79,4407.42,4705.26,4640.49,3804.09,4440.06,4528.29,3932.1,3971.37,4420.68,3573.06
1.0078125,4487.49,4704.75,4123.86,4206.4800000000005,4409.97,4707.81,4648.14,3803.07,4437.51,4527.27,3932.1,3976.4700000000003,4419.15,3573.57
1.015625,4489.53,4702.2,4126.41,4208.01,4405.89,4707.3,4646.1,3803.07,4436.49,4528.29,3935.16,3979.02,4419.15,3575.1
1.0234375,4490.04,4701.18,4121.82,4209.54,4406.91,4707.3,4644.06,3806.13,4434.96,4529.82,3929.55,3974.94,4419.66,3573.57
1.03125,4490.55,4702.71,4121.82,4211.58,4406.4,4707.81,4645.08,3809.19,4432.41,4529.31,3929.55,3978.0,4419.15,3576.12
1.0390625,4492.59,4702.71,4123.35,4212.09,4404.87,4707.3,4644.57,3808.6800000000003,4433.9400000000005,4527.78,3932.61,3981.57,4418.13,3578.67
1.046875,4491.06,4702.2,4120.29,4213.11,4406.4,4706.79,4646.1,3808.17,4436.49,4527.78,3931.08,3979.53,4416.6,3573.57
1.0546875,4489.53,4703.22,4120.29,4209.03,4406.91,4706.79,4646.61,3808.17,4435.9800000000005,4527.78,3932.1,3974.94,4417.62,3570.0
1.0625,4489.53,4704.24,4126.92,4207.5,4405.38,4708.83,4644.57,3805.11,4435.47,4527.27,3932.61,3972.39,4419.66,3568.4700000000003
1.0703125,4490.04,4699.14,4129.47,4210.05,4405.89,4706.28,4644.57,3802.05,4437.51,4526.76,3930.57,3973.41,4418.13,3570.0
1.078125,4490.04,4696.08,4126.92,4208.01,4406.91,4705.77,4647.12,3802.05,4438.02,4528.29,3929.55,3968.31,4415.58,3571.02
1.0859375,4490.04,4698.63,4128.45,4204.95,4405.89,4708.83,4647.12,3801.54,4437.51,4530.33,3932.61,3965.25,4416.09,3570.0
1.09375,4491.06,4698.63,4131.51,4204.4400000000005,4406.4,4706.79,4645.59,3800.52,4438.53,4528.8,3933.63,3970.35,4417.62,3571.53
1.1015625,4491.06,4699.65,4129.47,4203.93,4406.91,4705.77,4646.1,3801.03,4437.0,4526.76,3932.61,3973.41,4418.13,3571.53
1.109375,4491.06,4702.2,4127.9400000000005,4205.97,4405.38,4708.32,4644.06,3806.64,4433.9400000000005,4528.29,3932.61,3972.9,4420.68,3568.98
1.1171875,4491.06,4703.7300000000005,4128.96,4206.99,4406.4,4705.77,4644.06,3808.17,4432.92,4528.29,3933.12,3975.4500000000003,4421.1900000000005,3571.53
1.125,4489.53,4703.7300000000005,4124.37,4203.42,4407.42,4703.7300000000005,4650.6900000000005,3805.62,4433.9400000000005,4527.78,3932.1,3976.98,4417.62,3575.1
1.1328125,4489.53,4703.7300000000005,4123.35,4199.34,4405.89,4707.81,4648.65,3806.13,4434.96,4531.35,3931.59,3974.94,4419.15,3573.57
1.140625,4489.53,4702.2,4125.39,4205.97,4404.36,4709.34,4645.08,3807.15,4435.47,4530.33,3931.08,3975.4500000000003,4419.15,3572.55
1.1484375,4489.02,4701.6900000000005,4124.88,4212.09,4406.91,4706.28,4646.1,3807.15,4437.0,4526.76,3933.63,3978.51,4416.6,3571.53
1.15625,4489.53,4702.2,4125.9,4209.54,4408.4400000000005,4705.77,4646.1,3807.15,4438.02,4528.29,3934.14,3978.51,4417.62,3571.02
1.1640625,4491.57,4701.18,4126.92,4215.15,4406.91,4707.81,4646.1,3804.09,4435.9800000000005,4529.31,3929.04,3978.0,4418.64,3572.55
1.171875,4491.06,4700.16,4126.41,4216.17,4405.38,4707.81,4646.1,3804.6,4435.47,4527.27,3930.06,3979.02,4418.64,3572.04
1.1796875,4490.04,4699.65,4126.41,4205.97,4405.38,4706.79,4646.1,3808.6800000000003,4438.02,4526.76,3934.65,3974.4300000000003,4421.1900000000005,3570.51
1.1875,4491.06,4699.14,4130.49,4204.4400000000005,4406.4,4705.26,4646.61,3804.6,4439.04,4527.78,3934.65,3969.84,4420.17,3571.02
1.1953125,4491.57,4699.65,4128.96,4205.97,4406.91,4703.7300000000005,4647.63,3802.05,4439.55,4529.31,3935.67,3973.92,4417.62,3572.55
1.203125,4488.51,4701.18,4125.9,4203.93,4407.93,4705.26,4648.65,3805.62,4438.53,4529.82,3937.2000000000003,3975.96,4417.11,3571.53
1.2109375,4485.96,4700.67,4125.39,4200.87,4406.91,4707.81,4647.63,3804.09,4435.9800000000005,4529.31,3936.1800000000003,3970.86,4418.64,3570.51
1.21875,4487.49,4699.65,4122.84,4199.85,4404.87,4706.28,4646.1,3803.58,4434.45,4528.8,3936.69,3973.92,4417.62,3570.0
1.2265625,4490.04,4698.63,4121.82,4206.4800000000005,4404.36,4706.28,4647.12,3805.11,4434.45,4530.33,3938.2200000000003,3980.55,4416.6,3571.53
1.234375,4490.04,4697.1,4121.31,4208.01,4404.87,4707.81,4647.12,3804.09,4432.92,4530.84,3934.65,3976.4700000000003,4417.11,3573.06
1.2421875,4491.06,4698.12,4118.76,4208.01,4406.91,4707.81,4646.1,3803.58,4432.92,4527.78,3930.06,3976.4700000000003,4416.6,3567.96
1.25,4491.57,4700.16,4122.33,4210.05,4408.95,4706.79,4645.59,3807.15,4435.47,4527.27,3931.08,3980.04,4418.13,3567.96
1.2578125,4489.53,4700.67,4126.92,4205.97,4408.95,4706.79,4649.16,3806.64,4437.51,4530.33,3932.61,3974.94,4420.68,3574.08
1.265625,4486.9800000000005,4699.14,4125.9,4202.91,4407.42,4705.77,4651.71,3801.03,4435.47,4529.82,3931.59,3971.37,4418.13,3572.04
1.2734375,4487.49,4698.63,4125.39,4205.97,4406.91,4704.24,4647.12,3802.05,4433.43,4526.25,3933.12,3974.4300000000003,4416.09,3568.4700000000003
1.28125,4488.0,4702.71,4126.92,4203.42,4407.93,4708.32,4645.08,3803.07,4434.96,4527.27,3934.14,3972.39,4416.6,3570.51
1.2890625,4485.96,4702.2,4128.45,4199.34,4407.42,4710.36,4645.59,3801.54,4437.51,4528.29,3933.12,3970.86,4419.66,3572.04
1.296875,4489.02,4700.67,4128.96,4205.97,4406.4,4709.85,4645.08,3802.56,4438.53,4527.27,3932.1,3973.41,4420.17,3571.53
1.3046875,4491.06,4701.18,4126.92,4208.01,4408.4400000000005,4711.38,4646.1,3803.07,4436.49,4529.31,3932.1,3975.4500000000003,4418.64,3570.51
1.3125,4487.49,4699.14,4125.39,4204.4400000000005,4409.46,4708.83,4646.61,3804.6,4434.96,4531.35,3932.61,3975.96,4419.15,3570.0
1.3203125,4486.9800000000005,4700.67,4124.37,4209.54,4407.42,4705.77,4647.12,3806.64,4435.47,4528.29,3930.06,3975.4500000000003,4418.64,3569.4900000000002
1.328125,4491.06,4704.24,4124.88,4212.09,4406.4,4706.79,4646.1,3805.11,4435.9800000000005,4528.29,3930.57,3976.4700000000003,4418.64,3572.04
1.3359375,4490.04,4699.65,4126.92,4208.01,4407.42,4707.81,4645.59,3803.58,4435.9800000000005,4529.82,3934.14,3976.4700000000003,4419.66,3571.53
1.34375,4487.49,4697.61,4125.39,4208.01,4407.93,4706.28,4644.57,3804.09,4434.96,4529.31,3932.1,3975.4500000000003,4419.15,3567.96
1.3515625,4490.04,4702.2,4123.35,4209.54,4406.4,4704.75,4645.08,3803.07,4433.9400000000005,4528.8,3929.55,3974.94,4418.64,3569.4900000000002
1.359375,4490.55,4698.63,4126.41,4206.99,4405.38,4705.77,4648.14,3801.03,4434.96,4528.29,3932.61,3971.37,4417.62,3572.55
1.3671875,4487.49,4694.55,4129.47,4204.95,4406.91,4707.81,4647.63,3802.05,4434.96,4526.76,3934.65,3970.86,4418.13,3570.0
1.375,4487.49,4698.12,4125.9,4202.4,4406.91,4709.34,4645.08,3802.56,4433.9400000000005,4528.29,3933.12,3975.4500000000003,4417.11,3569.4900000000002
1.3828125,4489.02,4701.6900000000005,4124.37,4200.36,4405.89,4708.83,4644.57,3800.01,4435.47,4529.31,3932.61,3974.4300000000003,4417.11,3574.08
1.390625,4487.49,4701.18,4125.9,4197.81,4405.89,4708.32,4646.61,3802.05,4437.51,4529.31,3936.1800000000003,3972.9,4418.64,3577.65
1.3984375,4486.9800000000005,4700.16,4123.86,4200.87,4409.97,4708.83,4646.61,3807.66,4435.9800000000005,4530.33,3935.67,3975.96,4418.64,3573.57
1.40625,4488.51,4702.71,4122.33,4205.97,4410.4800000000005,4708.32,4644.57,3805.62,4434.96,4529.82,3931.59,3977.4900000000002,4417.62,3570.51
1.4140625,4489.02,4702.2,4122.33,4204.4400000000005,4406.91,4706.28,4644.57,3803.07,4438.53,4527.27,3933.12,3975.4500000000003,4417.11,3570.51
1.421875,4486.9800000000005,4702.2,4121.82,4207.5,4407.93,4706.28,4646.61,3806.64,4437.0,4528.29,3933.12,3973.92,4415.58,3570.0
1.4296875,4489.02,4703.22,4122.84,4211.07,4408.95,4707.81,4645.08,3806.64,4430.37,4528.8,3929.55,3975.4500000000003,4418.13,3571.02
1.4375,4492.08,4702.2,4121.82,4205.97,4406.4,4705.77,4644.57,3804.6,4431.9,4527.27,3928.53,3976.4700000000003,4419.15,3572.04
1.4453125,4490.04,4702.2,4123.86,4206.99,4406.91,4704.24,4646.61,3804.09,4438.02,4528.8,3932.1,3975.4500000000003,4416.6,3571.02
1.453125,4490.55,4702.71,4126.92,4208.52,4407.93,4706.79,4645.59,3803.58,4435.9800000000005,4530.84,3935.67,3976.4700000000003,4419.66,3571.02
1.4609375,4493.1,4700.16,4124.37,4202.91,4405.38,4709.85,4646.61,3803.58,4431.9,4528.29,3933.63,3974.94,4421.7,3572.04
1.46875,4491.57,4697.61,4124.37,4201.89,4405.38,4707.81,4646.61,3804.09,4437.51,4525.74,3930.57,3968.31,4418.13,3572.55
1.4765625,4491.06,4700.16,4126.41,4198.32,4407.42,4704.24,4643.55,3803.58,4441.08,4527.27,3932.61,3967.8,4419.15,3572.04
1.484375,4490.04,4702.2,4124.37,4195.77,4408.95,4705.77,4645.08,3804.09,4434.96,4528.29,3935.16,3971.37,4419.66,3572.04
1.4921875,4485.96,4701.18,4123.86,4200.87,4409.97,4706.28,4646.1,3804.6,4432.92,4528.29,3936.1800000000003,3969.84,4418.13,3572.04
1.5,4483.92,4701.6900000000005,4124.88,4204.4400000000005,4408.95,4706.79,4645.08,3805.62,4434.96,4529.31,3933.12,3971.88,4418.64,3570.51
1.5078125,4488.0,4703.22,4123.35,4206.99,4407.93,4706.79,4646.61,3806.64,4434.45,4529.82,3931.08,3979.02,4419.66,3571.02
1.515625,4494.12,4703.7300000000005,4123.35,4209.54,4408.4400000000005,4706.79,4644.57,3806.13,4434.96,4530.33,3933.12,3979.02,4419.15,3573.57
1.5234375,4492.08,4704.24,4124.37,4211.58,4409.46,4708.83,4642.53,3805.11,4434.45,4529.82,3933.12,3976.98,4419.66,3571.53
1.53125,4489.02,4702.2,4123.86,4210.56,4407.93,4709.85,4644.57,3804.09,4432.92,4528.8,3931.08,3976.98,4418.64,3568.98
1.5390625,4490.04,4701.18,4124.88,4209.54,4407.42,4708.83,4644.57,3802.56,4433.43,4528.8,3931.59,3972.39,4417.62,3568.98
1.546875,4492.08,4701.6900000000005,4125.9,4209.03,4405.38,4707.3,4644.57,3801.54,4435.47,4528.8,3933.63,3971.88,4417.62,3567.4500000000003
1.5546875,4491.57,4700.67,4125.9,4206.99,4404.36,4706.79,4646.1,3803.58,4437.0,4529.82,3932.61,3973.92,4418.13,3568.4700000000003
1.5625,4489.53,4701.18,4125.9,4205.97,4406.4,4708.83,4645.59,3804.09,4437.0,4528.8,3933.63,3972.39,4419.66,3571.02
1.5703125,4490.55,4701.18,4126.92,4201.89,4406.91,4707.81,4644.57,3801.03,4438.02,4528.29,3935.67,3972.9,4420.68,3574.08
1.578125,4491.06,4701.18,4127.9400000000005,4203.93,4408.4400000000005,4707.81,4646.61,3801.03,4437.0,4527.78,3931.08,3972.39,4418.13,3574.08
1.5859375,4489.02,4703.7300000000005,4126.41,4206.99,4407.93,4709.34,4645.08,3804.6,4435.47,4527.27,3928.53,3972.9,4419.15,3569.4900000000002
1.59375,4491.06,4703.7300000000005,4123.35,4203.42,4405.38,4706.28,4641.51,3804.09,4436.49,4529.31,3932.61,3976.4700000000003,4421.7,3569.4900000000002
1.6015625,4492.59,4701.6900000000005,4122.33,4208.52,4408.95,4704.75,4645.59,3803.58,4437.0,4530.84,3932.61,3979.53,4419.66,3571.53
1.609375,4488.51,4702.2,4122.33,4212.09,4412.01,4707.81,4646.61,3806.64,4435.9800000000005,4528.8,3930.57,3979.02,4419.15,3571.53
1.6171875,4493.1,4696.08,4123.86,4207.5,4404.36,4707.3,4643.55,3801.54,4435.9800000000005,4528.29,3932.61,3975.4500000000003,4419.66,3570.0
1.625,4489.53,4697.61,4126.92,4208.52,4407.42,4707.81,4646.61,3801.54,4437.51,4528.8,3935.67,3976.98,4415.58,3569.4900000000002
1.6328125,4488.51,4701.18,4127.9400000000005,4200.87,4407.42,4708.83,4646.61,3802.05,4437.51,4526.25,3933.63,3974.94,4415.58,3570.51
1.640625,4490.55,4699.14,4127.43,4198.83,4404.87,4706.79,4644.57,3798.9900000000002,4435.9800000000005,4526.25,3931.08,3970.35,4418.64,3569.4900000000002
1.6484375,4488.0,4698.12,4123.86,4202.4,4405.38,4705.26,4644.06,3801.54,4438.02,4531.35,3932.61,3971.88,4419.66,3568.98
1.65625,4486.9800000000005,4701.18,4125.39,4202.91,4407.42,4707.3,4646.61,3803.07,4439.55,4532.37,3933.12,3975.96,4417.11,3571.53
1.6640625,4491.06,4700.16,4128.45,4200.36,4407.93,4707.3,4646.1,3802.05,4434.45,4528.29,3932.61,3976.98,4418.13,3571.53
1.671875,4490.04,4700.67,4122.33,4202.4,4407.42,4705.26,4645.08,3805.62,4431.39,4527.27,3933.12,3973.92,4419.15,3571.02
1.6796875,4486.47,4703.7300000000005,4119.78,4208.01,4406.4,4706.28,4645.08,3807.66,4432.92,4528.8,3933.63,3974.4300000000003,4418.64,3571.53
1.6875,4488.0,4703.22,4123.86,4205.46,4403.34,4709.34,4646.1,3806.13,4434.45,4529.31,3931.08,3975.96,4420.68,3571.53
1.6953125,4491.06,4701.18,4124.88,4205.46,4404.36,4709.34,4644.57,3804.6,4434.45,4528.8,3929.55,3974.94,4420.68,3571.02
1.703125,4491.06,4702.2,4123.86,4210.05,4408.4400000000005,4708.32,4643.04,3805.11,4435.47,4528.29,3934.14,3972.9,4418.64,3571.53
1.7109375,4489.02,4702.2,4123.35,4208.01,4409.97,4706.79,4645.08,3803.58,4436.49,4527.27,3934.14,3970.86,4417.62,3568.98
1.71875,4489.53,4699.14,4126.41,4210.05,4406.4,4706.79,4649.67,3803.07,4437.0,4526.25,3930.06,3972.39,4418.13,3567.4500000000003
1.7265625,4490.04,4700.16,4128.96,4211.58,4405.38,4707.3,4648.14,3804.09,4437.51,4526.25,3930.06,3973.92,4418.13,3568.98
1.734375,4490.55,4701.6900000000005,4126.92,4201.89,4406.91,4705.77,4643.04,3802.56,4437.51,4527.27,3932.61,3972.39,4418.13,3568.98
1.7421875,4490.55,4699.65,4126.41,4197.3,4405.38,4706.28,4645.59,3802.56,4434.45,4529.31,3932.61,3970.86,4419.66,3571.02
1.75,4488.51,4700.16,4126.92,4200.36,4404.87,4706.79,4649.67,3804.09,4432.92,4530.33,3932.1,3972.9,4419.66,3572.55
1.7578125,4486.47,4701.6900000000005,4125.39,4197.81,4407.42,4705.26,4647.63,3800.52,4434.45,4528.29,3934.65,3974.94,4418.13,3570.0
1.765625,4487.49,4698.63,4125.39,4193.7300000000005,4407.93,4705.26,4645.59,3800.01,4435.47,4528.29,3934.14,3973.92,4417.62,3569.4900000000002
1.7734375,4488.0,4701.6900000000005,4124.37,4201.89,4405.89,4710.87,4647.12,3807.66,4434.96,4529.31,3932.61,3972.39,4417.11,3570.51
1.78125,4487.49,4704.75,4124.88,4210.05,4406.4,4710.36,4646.61,3808.6800000000003,4434.96,4529.31,3934.14,3974.4300000000003,4418.64,3570.51
1.7890625,4486.9800000000005,4698.63,4123.86,4209.03,4407.93,4705.77,4646.61,3805.11,4432.92,4529.82,3932.61,3977.4900000000002,4419.66,3569.4900000000002
1.796875,4490.04,4699.65,4121.31,4209.03,4406.91,4706.79,4648.65,3805.62,4432.92,4528.8,3929.55,3976.98,4418.64,3571.02
1.8046875,4491.57,4705.26,4121.82,4211.07,4405.89,4707.3,4648.65,3806.64,4437.51,4527.78,3932.61,3975.96,4418.13,3573.06
1.8125,4489.02,4700.67,4121.31,4213.62,4406.4,4706.28,4649.16,3803.58,4437.0,4528.8,3933.12,3976.98,4419.15,3571.53
1.8203125,4487.49,4697.61,4118.76,4212.6,4406.4,4706.28,4646.1,3804.09,4430.88,4529.31,3928.53,3979.02,4419.15,3568.98
1.828125,4486.9800000000005,4700.16,4122.33,4209.03,4407.42,4705.77,4644.57,3803.07,4433.43,4528.29,3929.55,3978.51,4420.17,3570.51
1.8359375,4488.51,4702.2,4126.92,4207.5,4407.93,4707.81,4647.12,3801.03,4438.02,4527.78,3929.04,3974.94,4421.1900000000005,3572.04
1.84375,4490.55,4701.6900000000005,4126.41,4206.4800000000005,4406.91,4707.81,4645.08,3803.58,4435.47,4527.78,3928.53,3971.37,4418.64,3570.51
1.8515625,4489.53,4702.2,4128.45,4207.5,4409.46,4707.3,4644.06,3801.54,4434.96,4527.27,3932.61,3969.84,4417.62,3570.0
1.859375,4490.55,4701.6900000000005,4127.9400000000005,4204.95,4411.5,4708.32,4645.08,3797.46,4439.55,4527.78,3934.14,3971.37,4418.64,3571.02
1.8671875,4491.06,4700.67,4123.35,4201.38,4407.42,4707.3,4645.08,3800.01,4438.02,4528.29,3932.61,3971.88,4418.13,3570.51
1.875,4488.0,4700.16,4123.86,4203.93,4403.85,4706.79,4645.59,3803.58,4434.96,4528.29,3932.1,3971.88,4419.15,3570.0
1.8828125,4486.9800000000005,4701.6900000000005,4124.37,4200.87,4403.34,4707.81,4646.61,3803.07,4435.47,4528.8,3933.63,3971.88,4419.66,3571.53
1.890625,4488.0,4704.24,4120.8,4199.85,4403.85,4708.32,4646.1,3803.07,4433.43,4529.31,3934.14,3973.41,4418.64,3571.53
1.8984375,4487.49,4704.24,4122.84,4209.54,4405.89,4706.79,4645.08,3804.09,4431.39,4530.33,3933.12,3977.4900000000002,4419.66,3570.0
1.90625,4488.51,4702.2,4125.39,4207.5,4407.93,4708.83,4646.1,3803.07,4434.96,4529.82,3934.65,3977.4900000000002,4420.17,3570.0
1.9140625,4488.51,4702.2,4123.86,4205.46,4406.91,4709.34,4646.61,3803.07,4437.51,4527.27,3933.63,3974.4300000000003,4418.13,3570.51
1.921875,4486.9800000000005,4701.18,4124.88,4211.58,4406.4,4705.77,4645.08,3804.09,4437.51,4528.8,3931.59,3975.4500000000003,4418.13,3571.53
1.9296875,4491.06,4699.14,4124.37,4207.5,4407.93,4704.75,4644.06,3804.09,4434.96,4531.86,3934.14,3976.4700000000003,4420.68,3573.06
1.9375,4494.12,4698.12,4124.37,4206.4800000000005,4407.42,4704.75,4645.08,3802.56,4433.43,4530.33,3935.67,3973.92,4418.64,3571.53
1.9453125,4489.02,4698.63,4125.9,4208.01,4404.87,4706.79,4644.06,3803.07,4435.9800000000005,4528.29,3933.63,3971.37,4417.11,3568.4700000000003
1.953125,4486.47,4699.14,4125.9,4202.91,4406.91,4708.32,4644.06,3805.62,4438.02,4528.8,3932.1,3972.9,4417.62,3571.02
1.9609375,4489.02,4699.14,4125.39,4198.32,4408.95,4708.83,4644.57,3803.58,4433.43,4529.31,3933.12,3971.37,4419.15,3575.61
1.96875,4489.53,4700.67,4124.37,4196.79,4406.4,4708.83,4644.06,3803.58,4430.88,4529.82,3932.61,3968.82,4419.15,3573.06
1.9765625,4488.51,4702.2,4122.84,4198.32,4406.91,4708.83,4646.61,3804.09,4433.9400000000005,4529.82,3933.12,3972.39,4418.13,3571.02
1.984375,4489.53,4700.16,4120.29,4202.91,4406.91,4708.83,4649.16,3802.56,4433.9400000000005,4528.8,3934.65,3972.39,4418.13,3573.57
1.9921875,4488.0,4700.16,4118.76,4208.01,4406.91,4710.36,4648.65,3804.09,4431.9,4529.31,3934.14,3970.35,4417.11,3573.57
2.0,4489.02,4701.18,4121.31,4210.56,4409.97,4709.34,4645.08,3805.11,4433.9400000000005,4529.31,3933.63,3976.98,4416.09,3571.02
2.0078125,4494.63,4699.65,4124.88,4210.56,4409.46,4705.26,4644.57,3803.58,4437.51,4528.8,3931.08,3978.0,4416.6,3570.0
2.015625,4493.61,4698.63,4123.86,4210.56,4404.87,4704.75,4646.1,3805.11,4438.02,4529.31,3930.57,3975.4500000000003,4417.62,3571.53
2.0234375,4490.55,4699.14,4123.86,4210.56,4404.36,4706.28,4645.08,3808.6800000000003,4437.51,4528.8,3934.14,3976.98,4417.62,3574.08
2.03125,4492.59,4699.65,4127.43,4208.01,4407.42,4707.3,4645.08,3806.13,4435.47,4527.27,3934.14,3973.41,4419.15,3572.04
2.0390625,4493.61,4701.18,4125.39,4204.95,4407.42,4705.26,4646.61,3803.58,4435.47,4528.8,3932.1,3970.35,4419.66,3570.51
2.046875,4490.55,4701.6900000000005,4123.86,4205.97,4406.91,4702.71,4647.12,3803.58,4437.0,4530.33,3934.14,3971.37,4418.64,3572.55
2.0546875,4489.53,4700.16,4125.39,4203.42,4407.42,4705.77,4647.12,3800.52,4436.49,4527.27,3933.63,3970.86,4419.15,3573.06
2.0625,4492.59,4699.14,4126.41,4199.85,4405.89,4708.32,4648.14,3800.52,4436.49,4526.25,3930.06,3970.86,4418.64,3571.53
2.0703125,4491.57,4699.14,4125.9,4205.97,4405.89,4707.3,4647.63,3803.07,4437.51,4529.82,3930.06,3973.41,4417.62,3572.55
2.078125,4488.0,4702.71,4123.35,4209.03,4407.42,4706.28,4644.06,3804.6,4435.9800000000005,4530.84,3933.63,3974.94,4417.62,3573.57
2.0859375,4490.04,4706.28,4122.33,4205.97,4406.91,4705.26,4644.57,3807.66,4433.43,4528.8,3934.65,3978.0,4418.64,3573.06
2.09375,4492.59,4705.26,4121.82,4210.56,4405.89,4706.28,4647.12,3809.19,4434.45,4528.8,3931.59,3979.53,4416.6,3571.53
2.1015625,4492.08,4701.6900000000005,4120.8,4212.09,4407.42,4707.3,4647.12,3806.64,4434.96,4531.35,3930.06,3978.0,4417.11,3572.04
2.109375,4490.55,4699.65,4123.35,4209.54,4408.4400000000005,4705.77,4646.1,3805.11,4434.45,4529.31,3930.57,3976.4700000000003,4419.15,3572.55
2.1171875,4490.55,4700.67,4131.0,4210.56,4405.89,4706.79,4646.1,3803.07,4434.45,4526.76,3932.61,3976.4700000000003,4418.64,3569.4900000000002
2.125,4490.55,4700.67,4132.53,4204.4400000000005,4404.87,4707.81,4646.1,3801.03,4436.49,4527.78,3935.16,3978.51,4417.11,3569.4900000000002
2.1328125,4491.06,4699.65,4127.9400000000005,4199.85,4406.91,4706.28,4648.14,3801.03,4437.0,4528.29,3933.63,3975.4500000000003,4416.09,3572.55
2.140625,4492.59,4700.16,4126.41,4203.93,4407.93,4706.79,4647.63,3804.09,4434.96,4527.78,3934.65,3970.35,4419.66,3571.53
2.1484375,4491.06,4702.2,4124.37,4203.93,4406.91,4708.32,4645.08,3804.6,4435.47,4529.82,3935.67,3973.92,4422.21,3570.0
2.15625,4489.02,4703.7300000000005,4124.88,4201.89,4409.46,4707.81,4647.63,3801.54,4435.47,4531.35,3932.1,3976.4700000000003,4420.17,3571.53
2.1640625,4490.55,4702.71,4124.37,4202.91,4409.46,4707.81,4646.1,3803.58,4433.43,4530.84,3931.59,3973.41,4419.15,3571.53
2.171875,4491.57,4702.2,4119.27,4207.5,4405.89,4708.32,4644.57,3808.6800000000003,4434.96,4530.33,3933.63,3974.94,4417.62,3570.0
2.1796875,4487.49,4701.6900000000005,4120.8,4210.56,4404.87,4705.77,4647.12,3807.66,4434.45,4529.82,3934.65,3978.51,4416.6,3572.55
2.1875,4486.9800000000005,4702.2,4124.37,4207.5,4405.89,4704.24,4647.63,3804.09,4433.43,4529.31,3932.61,3976.98,4418.13,3572.55
2.1953125,4490.55,4704.24,4124.88,4208.52,4407.42,4706.79,4644.57,3803.58,4434.96,4529.31,3931.59,3976.98,4418.13,3568.4700000000003
2.203125,4491.06,4700.16,4126.41,4205.46,4407.93,4705.26,4641.0,3807.15,4437.0,4530.33,3935.16,3979.02,4419.66,3571.53
2.2109375,4489.53,4698.63,4124.37,4197.3,4406.91,4703.7300000000005,4644.06,3806.64,4434.96,4530.33,3933.63,3974.94,4421.1900000000005,3575.1
2.21875,4486.9800000000005,4702.71,4123.35,4200.36,4408.95,4707.81,4647.63,3801.54,4432.92,4528.29,3930.06,3972.9,4419.66,3569.4900000000002
2.2265625,4487.49,4702.2,4125.9,4201.38,4410.99,4709.34,4644.06,3801.03,4433.9400000000005,4528.8,3933.12,3976.4700000000003,4420.68,3568.98
2.234375,4489.02,4700.16,4124.37,4204.4400000000005,4408.95,4706.28,4643.04,3804.09,4435.47,4529.31,3933.63,3977.4900000000002,4420.17,3572.55
2.2421875,4489.53,4699.14,4123.86,4211.07,4405.38,4706.28,4647.12,3803.58,4433.43,4529.31,3930.57,3975.96,4418.64,3574.59
2.25,4490.04,4701.18,4124.37,4208.52,4405.89,4708.32,4647.63,3804.6,4433.43,4529.82,3931.59,3976.4700000000003,4417.62,3575.61
2.2578125,4490.55,4703.7300000000005,4123.35,4208.52,4406.4,4706.28,4645.08,3809.19,4436.49,4527.78,3932.1,3981.57,4416.6,3573.57
2.265625,4491.06,4702.71,4125.39,4209.54,4403.85,4704.75,4643.04,3807.66,4434.45,4528.29,3931.59,3979.53,4419.66,3572.55
2.2734375,4489.53,4700.16,4125.39,4206.4800000000005,4407.42,4708.32,4646.61,3801.54,4433.43,4528.8,3929.04,3971.37,4420.68,3571.02
2.28125,4488.51,4697.61,4125.39,4204.4400000000005,4407.42,4707.81,4649.67,3800.01,4438.02,4526.76,3930.06,3973.41,4419.15,3570.0
2.2890625,4489.02,4700.67,4129.47,4203.93,4403.34,4706.28,4650.18,3803.07,4439.04,4527.27,3934.14,3973.92,4418.13,3570.51
2.296875,4489.02,4704.24,4129.9800000000005,4201.89,4405.89,4708.83,4649.16,3803.07,4437.0,4528.8,3933.63,3971.88,4417.11,3571.53
2.3046875,4489.53,4698.63,4126.41,4201.38,4409.97,4707.3,4644.06,3801.54,4435.9800000000005,4529.31,3931.08,3972.9,4418.64,3572.04
2.3125,4489.02,4699.14,4124.37,4203.93,4408.4400000000005,4707.3,4644.06,3801.54,4433.9400000000005,4529.31,3930.57,3974.94,4420.17,3570.0
2.3203125,4488.0,4705.77,4125.39,4203.42,4405.89,4707.81,4646.1,3801.54,4433.43,4529.31,3932.1,3975.4500000000003,4419.66,3572.04
2.328125,4488.51,4704.75,4124.88,4206.4800000000005,4407.93,4705.77,4645.59,3803.58,4436.49,4529.82,3931.59,3975.4500000000003,4419.15,3574.08
2.3359375,4489.53,4703.22,4123.86,4210.56,4407.42,4705.77,4646.61,3806.64,4435.9800000000005,4530.33,3929.04,3978.0,4421.1900000000005,3572.04
2.34375,4488.51,4703.22,4124.37,4206.4800000000005,4404.87,4706.28,4645.59,3806.64,4434.96,4528.29,3930.57,3980.04,4420.17,3570.51
2.3515625,4488.51,4700.16,4125.39,4203.93,4405.38,4708.83,4644.57,3804.09,4435.9800000000005,4526.25,3932.1,3975.96,4414.56,3568.98
2.359375,4491.57,4699.65,4125.39,4205.46,4404.87,4709.34,4644.57,3804.09,4434.96,4528.8,3930.57,3972.39,4415.07,3568.4700000000003
2.3671875,4492.08,4699.14,4126.41,4200.87,4403.85,4704.24,4646.1,3804.09,4433.9400000000005,4530.84,3931.08,3973.92,4419.66,3573.06
2.375,4488.0,4699.14,4127.9400000000005,4200.36,4404.87,4704.24,4647.12,3802.05,4434.96,4529.31,3932.61,3971.88,4418.13,3572.04
2.3828125,4485.96,4701.18,4127.9400000000005,4204.95,4405.38,4708.32,4646.1,3802.56,4436.49,4528.8,3933.63,3969.33,4417.11,3570.51
2.390625,4488.0,4701.18,4125.9,4203.42,4406.91,4706.79,4645.59,3802.05,4434.96,4530.84,3932.1,3972.39,4419.15,3572.04
2.3984375,4490.04,4702.2,4124.37,4200.87,4410.4800000000005,4705.77,4646.1,3799.5,4434.45,4529.82,3930.57,3971.88,4419.15,3572.04
2.40625,4489.53,4703.22,4122.84,4202.4,4406.4,4708.32,4646.61,3803.58,4435.47,4526.25,3931.08,3969.33,4419.15,3570.51
2.4140625,4486.9800000000005,4705.26,4120.8,4203.42,4402.83,4706.79,4647.63,3809.19,4432.41,4527.27,3931.08,3973.92,4419.15,3571.02
2.421875,4487.49,4703.7300000000005,4120.8,4201.89,4407.93,4704.75,4645.59,3806.64,4432.41,4529.82,3931.59,3978.51,4420.17,3571.02
2.4296875,4490.04,4700.67,4122.84,4206.4800000000005,4410.4800000000005,4707.3,4643.55,3806.64,4436.49,4529.31,3932.61,3975.96,4422.21,3570.51
2.4375,4488.51,4701.6900000000005,4124.88,4212.09,4407.93,4708.32,4644.06,3809.19,4434.45,4529.31,3932.1,3974.94,4421.1900000000005,3570.51
2.4453125,4489.02,4702.71,4125.39,4207.5,4407.42,4707.81,4643.55,3804.09,4432.41,4529.31,3932.1,3974.4300000000003,4418.64,3571.53
2.453125,4493.1,4700.67,4124.88,4209.54,4410.4800000000005,4707.81,4644.06,3801.03,4435.47,4528.8,3929.55,3972.39,4417.62,3572.04
2.4609375,4492.59,4700.16,4124.88,4215.66,4409.97,4706.28,4644.06,3803.07,4435.47,4528.29,3930.57,3973.41,4418.64,3573.06
2.46875,4489.02,4702.2,4124.37,4209.54,4405.89,4704.75,4643.55,3802.56,4432.41,4527.78,3932.61,3972.9,4420.17,3571.53
2.4765625,4489.02,4701.18,4124.88,4205.97,4405.89,4704.75,4645.59,3801.54,4434.96,4529.31,3930.57,3969.33,4419.15,3569.4900000000002
2.484375,4489.53,4700.67,4126.41,4204.95,4407.93,4706.28,4646.1,3804.09,4438.53,4530.33,3932.1,3966.78,4419.66,3571.02
2.4921875,4490.55,4700.16,4125.39,4198.83,4407.42,4707.81,4645.59,3802.05,4437.0,4527.27,3935.16,3968.82,4420.68,3573.06
2.5,4489.53,4700.16,4125.39,4196.79,4406.4,4706.28,4645.59,3798.48,4433.43,4525.2300000000005,3933.63,3970.86,4419.66,3573.57
2.5078125,4486.9800000000005,4703.7300000000005,4127.43,4200.87,4406.91,4703.7300000000005,4644.57,3801.54,4434.96,4528.8,3931.08,3970.86,4420.17,3573.06
2.515625,4488.0,4704.24,4127.43,4204.4400000000005,4408.4400000000005,4707.3,4645.08,3805.11,4437.0,4528.29,3932.61,3971.37,4421.7,3573.06
2.5234375,4491.06,4701.18,4125.39,4203.93,4406.91,4709.34,4644.06,3801.54,4432.92,4525.2300000000005,3933.12,3973.41,4419.15,3573.57
2.53125,4488.0,4701.6900000000005,4123.35,4205.46,4406.4,4707.81,4643.04,3800.52,4431.39,4526.76,3931.08,3975.4500000000003,4417.62,3573.57
2.5390625,4485.45,4704.24,4123.86,4211.58,4406.91,4708.32,4645.08,3805.11,4435.47,4529.82,3931.08,3975.96,4418.64,3573.57
2.546875,4491.06,4704.24,4124.88,4211.58,4406.4,4706.79,4647.12,3806.64,4438.02,4529.82,3932.61,3978.0,4419.66,3574.08
2.5546875,4492.08,4703.7300000000005,4121.31,4209.54,4405.89,4705.77,4645.08,3807.15,4434.96,4527.78,3931.08,3978.51,4419.15,3572.04
2.5625,4489.53,4701.6900000000005,4119.78,4211.07,4406.91,4706.28,4643.55,3807.15,4432.92,4528.29,3929.04,3975.96,4418.64,3573.06
2.5703125,4492.59,4698.12,4123.35,4211.07,4407.42,4708.32,4645.59,3804.09,4435.47,4528.29,3930.06,3974.4300000000003,4418.13,3574.59
2.578125,4494.63,4698.63,4127.43,4206.99,4406.4,4708.32,4646.1,3803.07,4437.51,4525.74,3931.08,3974.94,4418.64,3570.51
2.5859375,4492.59,4698.63,4128.96,4203.42,4405.89,4706.28,4644.06,3803.58,4436.49,4526.76,3931.59,3972.39,4419.15,3570.0
2.59375,4490.55,4698.12,4127.9400000000005,4202.91,4406.4,4706.28,4643.04,3800.52,4433.43,4528.29,3931.59,3968.31,4417.62,3570.0
2.6015625,4490.55,4699.65,4126.41,4203.42,4406.91,4706.28,4642.53,3802.56,4431.9,4527.78,3931.08,3970.35,4418.64,3568.4700000000003
2.609375,4489.53,4699.65,4125.9,4202.4,4407.42,4705.26,4644.06,3807.15,4432.92,4528.8,3931.08,3974.4300000000003,4419.15,3571.02
2.6171875,4488.0,4703.7300000000005,4125.39,4200.36,4408.95,4707.81,4643.55,3806.64,4434.96,4526.76,3929.55,3975.96,4420.68,3571.53
2.625,4488.0,4703.7300000000005,4121.82,4206.4800000000005,4408.4400000000005,4706.79,4646.61,3809.19,4433.9400000000005,4526.25,3931.08,3977.4900000000002,4421.1900000000005,3571.53
2.6328125,4489.53,4702.2,4123.35,4208.01,4407.93,4707.81,4648.65,3806.64,4432.92,4528.8,3933.63,3977.4900000000002,4418.64,3571.02
2.640625,4492.59,4702.2,4125.39,4204.4400000000005,4406.4,4709.34,4645.59,3803.07,4432.41,4528.8,3932.61,3978.51,4417.62,3571.02
2.6484375,4492.08,4702.71,4125.39,4210.05,4406.4,4709.85,4646.1,3803.58,4433.43,4527.27,3932.1,3978.51,4417.11,3571.53
2.65625,4490.55,4700.16,4122.33,4213.11,4407.42,4709.34,4645.08,3807.15,4435.47,4526.76,3932.1,3975.96,4417.62,3571.02
2.6640625,4491.57,4698.63,4122.33,4209.54,4406.91,4706.28,4643.04,3807.15,4436.49,4527.27,3928.53,3971.88,4419.66,3571.53
2.671875,4493.1,4699.14,4125.39,4208.01,4408.4400000000005,4704.75,4645.59,3804.6,4435.47,4527.78,3930.06,3974.4300000000003,4419.66,3572.04
2.6796875,4492.08,4701.18,4124.37,4205.97,4407.42,4705.77,4647.63,3806.64,4435.47,4526.25,3934.14,3975.96,4417.62,3572.04
2.6875,4487.49,4703.22,4123.86,4203.93,4403.85,4706.28,4646.61,3804.6,4434.45,4527.27,3933.12,3970.86,4417.62,3572.55
2.6953125,4484.9400000000005,4700.67,4123.86,4201.89,4404.36,4705.26,4647.12,3798.9900000000002,4432.92,4529.31,3932.1,3971.88,4417.11,3571.02
2.703125,4488.51,4699.65,4122.33,4200.36,4407.93,4705.26,4646.61,3802.56,4433.9400000000005,4528.8,3934.14,3975.4500000000003,4417.62,3571.53
2.7109375,4492.08,4702.71,4123.35,4203.42,4406.91,4706.79,4644.57,3808.17,4435.47,4527.27,3935.16,3973.41,4418.64,3573.57
2.71875,4490.04,4702.2,4124.37,4205.46,4407.42,4708.32,4646.61,3807.15,4434.96,4529.31,3932.61,3973.41,4420.68,3571.02
2.7265625,4489.53,4700.16,4123.35,4206.99,4410.4800000000005,4706.79,4647.63,3806.64,4434.96,4530.33,3930.57,3976.4700000000003,4420.17,3569.4900000000002
2.734375,4492.59,4701.18,4123.35,4209.03,4407.93,4704.75,4645.08,3807.66,4437.0,4529.31,3933.63,3975.96,4419.15,3570.51
2.7421875,4491.57,4701.18,4123.35,4208.01,4404.36,4706.79,4646.1,3805.11,4438.02,4528.8,3933.12,3976.98,4418.13,3568.98
2.75,4489.02,4700.16,4123.35,4208.01,4406.91,4707.81,4648.14,3804.09,4436.49,4526.25,3929.55,3980.04,4416.6,3568.98
2.7578125,4490.04,4699.14,4125.39,4209.03,4408.95,4708.32,4645.08,3806.13,4435.9800000000005,4526.25,3932.1,3974.94,4416.6,3572.04
2.765625,4491.06,4697.61,4122.84,4205.97,4408.4400000000005,4709.34,4646.1,3803.58,4434.45,4528.8,3933.63,3970.86,4417.11,3571.02
2.7734375,4489.02,4698.63,4123.35,4205.46,4407.93,4707.3,4647.12,3798.9900000000002,4434.96,4529.82,3932.1,3972.9,4419.66,3571.02
2.78125,4488.0,4701.18,4128.45,4207.5,4406.91,4708.83,4643.55,3801.03,4437.51,4529.31,3932.1,3972.9,4420.68,3572.04
2.7890625,4488.51,4700.67,4128.45,4205.46,4405.89,4714.4400000000005,4642.53,3804.09,4438.02,4530.33,3932.1,3972.9,4418.64,3570.0
2.796875,4488.51,4699.14,4126.92,4204.4400000000005,4406.4,4709.85,4642.53,3804.09,4437.0,4530.84,3931.08,3975.4500000000003,4418.64,3570.0
2.8046875,4487.49,4703.22,4124.88,4209.03,4406.91,4704.75,4644.06,3804.6,4436.49,4530.33,3931.08,3978.51,4420.68,3571.02
2.8125,4488.0,4706.79,4122.84,4211.58,4405.89,4707.3,4644.57,3804.6,4433.9400000000005,4530.33,3933.12,3981.06,4419.15,3571.02
2.8203125,4490.04,4702.2,4123.86,4209.03,4405.89,4707.81,4644.06,3803.07,4432.92,4530.33,3933.63,3979.53,4417.62,3571.02
2.828125,4491.06,4699.14,4123.35,4209.03,4406.91,4706.79,4645.08,3802.56,4435.47,4528.29,3930.06,3977.4900000000002,4418.13,3571.02
2.8359375,4487.49,4698.12,4122.33,4208.01,4407.93,4710.36,4646.61,3804.09,4435.9800000000005,4527.27,3930.06,3978.51,4419.15,3570.51
2.84375,4488.51,4697.1,4125.39,4203.42,4406.91,4710.87,4647.63,3802.05,4435.47,4527.78,3932.61,3975.96,4419.15,3571.02
2.8515625,4493.61,4701.18,4128.45,4204.95,4407.93,4708.83,4645.59,3798.9900000000002,4435.47,4526.76,3933.12,3971.37,4418.64,3572.55
2.859375,4493.1,4702.2,4128.45,4206.4800000000005,4406.91,4708.83,4645.08,3799.5,4435.9800000000005,4526.76,3933.12,3974.94,4417.62,3573.57
2.8671875,4488.51,4698.12,4127.9400000000005,4202.91,4403.34,4708.83,4647.63,3800.52,4434.96,4529.31,3934.14,3975.96,4417.62,3570.51
2.875,4488.0,4698.12,4126.92,4200.36,4404.36,4707.81,4645.59,3802.05,4436.49,4531.86,3934.65,3972.39,4418.13,3569.4900000000002
2.8828125,4487.49,4702.71,4125.39,4201.38,4407.93,4708.32,4641.51,3804.6,4437.51,4531.86,3932.61,3971.37,4418.64,3571.53
2.890625,4487.49,4703.7300000000005,4125.39,4199.85,4409.46,4706.79,4644.06,3804.09,4436.49,4529.31,3932.1,3973.92,4419.15,3570.51
2.8984375,4488.0,4701.18,4122.84,4197.3,4408.95,4703.7300000000005,4648.14,3804.6,4435.47,4527.27,3933.12,3976.98,4418.64,3568.4700000000003
2.90625,4487.49,4703.22,4122.33,4203.93,4409.46,4706.79,4647.12,3806.64,4435.47,4526.76,3931.08,3976.98,4419.15,3568.4700000000003
2.9140625,4486.9800000000005,4704.24,4123.86,4205.97,4407.42,4708.83,4645.59,3806.64,4436.49,4528.29,3930.57,3976.4700000000003,4420.68,3572.04
2.921875,4489.02,4700.16,4122.33,4203.93,4407.42,4707.3,4645.59,3804.6,4437.51,4530.33,3933.63,3976.4700000000003,4418.64,3572.55
2.9296875,4490.55,4697.1,4122.33,4209.03,4411.5,4706.79,4645.59,3803.58,4437.0,4528.29,3932.61,3976.4700000000003,4417.11,3570.51
2.9375,4491.57,4698.12,4124.37,4206.4800000000005,4407.42,4707.3,4643.55,3803.58,4435.9800000000005,4525.74,3930.06,3975.96,4419.66,3572.55
2.9453125,4490.55,4698.12,4125.39,4202.4,4403.85,4707.3,4643.04,3803.58,4434.96,4527.78,3930.06,3971.37,4418.13,3573.57
2.953125,4488.51,4698.12,4126.41,4205.97,4408.4400000000005,4706.79,4645.59,3802.56,4434.96,4529.82,3931.59,3969.84,4416.6,3571.02
2.9609375,4489.53,4700.67,4126.92,4204.4400000000005,4410.99,4707.3,4647.12,3802.56,4436.49,4528.8,3932.61,3973.41,4419.15,3570.51
2.96875,4489.53,4702.71,4127.43,4201.38,4408.95,4709.34,4645.59,3802.05,4437.51,4529.31,3933.12,3972.39,4417.62,3573.06
2.9765625,4488.51,4701.6900000000005,4127.43,4204.4400000000005,4407.93,4709.85,4642.53,3803.58,4435.47,4529.31,3934.14,3968.82,4418.64,3572.55
2.984375,4489.53,4702.2,4125.39,4206.4800000000005,4409.97,4708.32,4644.57,3806.64,4433.43,4527.78,3934.14,3973.92,4421.7,3570.51
2.9921875,4489.53,4704.75,4124.37,4204.4400000000005,4409.46,4707.81,4646.1,3804.6,4432.92,4528.29,3933.63,3975.96,4421.1900000000005,3569.4900000000002
3.0,4489.53,4703.22,4124.88,4205.97,4407.93,4708.32,4644.06,3804.09,4433.9400000000005,4529.31,3933.12,3970.35,4419.15,3570.0
3.0078125,4491.06,4701.18,4124.37,4211.58,4408.95,4710.36,4643.04,3808.17,4436.49,4526.76,3931.08,3973.92,4418.64,3572.55
3.015625,4491.57,4701.6900000000005,4127.43,4213.62,4408.4400000000005,4709.85,4644.06,3806.64,4439.55,4526.76,3930.06,3976.4700000000003,4417.62,3573.06
3.0234375,4490.04,4703.22,4127.43,4212.09,4407.42,4706.28,4645.59,3805.11,4439.55,4528.8,3932.1,3970.86,4418.64,3572.04
3.03125,4490.55,4702.71,4124.37,4215.15,4407.93,4705.26,4645.59,3807.15,4438.53,4529.31,3934.65,3974.94,4420.68,3572.04
3.0390625,4490.04,4701.18,4124.88,4211.58,4408.95,4707.81,4646.1,3806.13,4438.02,4528.29,3934.14,3977.4900000000002,4418.64,3572.55
3.046875,4486.47,4700.67,4128.96,4204.4400000000005,4409.46,4711.38,4649.16,3803.58,4435.9800000000005,4527.27,3930.57,3970.86,4417.62,3572.55
3.0546875,4488.0,4700.67,4128.96,4203.93,4407.93,4707.3,4648.14,3803.58,4435.9800000000005,4527.78,3932.1,3971.88,4419.15,3572.55
3.0625,4492.59,4702.2,4125.9,4205.46,4406.91,4705.26,4645.59,3803.07,4436.49,4528.8,3933.12,3975.4500000000003,4417.62,3572.55
3.0703125,4489.02,4701.6900000000005,4126.41,4203.93,4407.93,4708.83,4645.59,3804.09,4434.96,4527.78,3930.57,3973.41,4417.11,3573.57
3.078125,4485.45,4699.65,4125.9,4200.87,4407.42,4706.28,4646.1,3806.13,4437.51,4526.25,3929.55,3976.98,4417.62,3573.57
3.0859375,4489.53,4703.22,4122.33,4204.95,4404.87,4704.24,4646.1,3804.09,4436.49,4527.27,3931.08,3981.57,4416.6,3570.51
3.09375,4492.59,4703.22,4124.37,4212.09,4406.4,4708.83,4647.12,3805.11,4433.9400000000005,4530.84,3932.1,3979.02,4417.11,3571.53
3.1015625,4491.57,4699.14,4125.39,4214.64,4409.46,4710.36,4647.12,3809.19,4439.04,4532.37,3931.59,3976.98,4418.64,3575.1
3.109375,4490.04,4699.65,4121.31,4210.56,4408.4400000000005,4706.79,4646.1,3807.15,4440.06,4528.29,3932.1,3979.02,4419.66,3573.06
3.1171875,4490.04,4700.16,4123.35,4206.99,4406.4,4705.26,4645.59,3803.07,4435.47,4525.2300000000005,3933.12,3979.53,4420.17,3570.51
3.125,4490.04,4698.63,4128.96,4206.99,4407.93,4707.81,4649.16,3803.58,4436.49,4526.25,3932.1,3974.94,4418.64,3571.53
3.1328125,4489.53,4699.14,4126.41,4202.91,4407.93,4708.32,4649.67,3805.11,4438.53,4529.31,3932.1,3972.9,4417.62,3571.53
3.140625,4489.02,4700.16,4126.41,4199.85,4405.89,4706.79,4645.08,3802.56,4436.49,4528.8,3933.12,3973.92,4417.62,3570.51
3.1484375,4488.51,4701.18,4129.47,4202.91,4406.4,4706.28,4643.55,3800.01,4435.47,4528.29,3932.61,3972.39,4417.11,3571.02
3.15625,4489.02,4700.16,4127.43,4202.4,4407.42,4706.28,4642.53,3802.05,4434.96,4530.33,3932.1,3972.9,4419.66,3573.57
3.1640625,4489.53,4700.67,4124.37,4200.36,4406.4,4705.77,4642.53,3804.6,4435.47,4530.33,3932.61,3975.4500000000003,4420.68,3574.08
3.171875,4491.06,4704.24,4124.88,4202.4,4406.91,4705.77,4645.08,3805.62,4437.51,4528.29,3933.12,3976.4700000000003,4417.62,3571.02
3.1796875,4492.08,4705.77,4124.37,4204.4400000000005,4407.93,4704.75,4645.08,3807.66,4437.51,4528.8,3933.12,3980.04,4418.64,3570.0
3.1875,4489.53,4702.71,4123.35,4205.97,4406.91,4706.28,4645.08,3808.17,4435.9800000000005,4528.8,3932.1,3980.55,4419.66,3570.51
3.1953125,4489.02,4702.71,4125.9,4204.95,4406.4,4708.83,4645.08,3806.13,4435.47,4528.29,3931.08,3978.0,4417.62,3572.04
3.203125,4490.04,4704.24,4124.37,4205.97,4407.93,4707.81,4647.12,3806.13,4434.96,4530.33,3930.57,3978.0,4417.62,3571.02
3.2109375,4489.53,4700.16,4123.35,4207.5,4406.91,4706.28,4645.59,3808.17,4435.9800000000005,4529.82,3932.61,3981.06,4420.17,3570.51
3.21875,4490.04,4696.59,4123.86,4203.93,4407.42,4707.3,4644.57,3807.66,4438.53,4528.8,3932.1,3975.4500000000003,4419.15,3572.04
3.2265625,4486.9800000000005,4704.24,4124.88,4216.17,4410.99,4710.36,4650.6900000000005,3802.05,4437.0,4528.8,3927.0,3973.92,4412.52,3567.96
3.234375,4486.47,4706.28,4131.51,4218.21,4408.4400000000005,4705.26,4646.61,3800.01,4434.96,4527.27,3933.63,3982.08,4417.11,3568.4700000000003
3.2421875,4491.57,4700.16,4127.43,4202.91,4406.4,4705.26,4641.51,3804.09,4434.96,4525.74,3935.67,3976.4700000000003,4423.2300000000005,3571.02
3.25,4491.57,4702.2,4120.8,4214.13,4409.46,4710.87,4646.1,3805.11,4433.43,4526.25,3928.02,3973.41,4418.13,3568.4700000000003
3.2578125,4491.06,4701.18,4125.39,4214.64,4406.91,4706.28,4643.04,3806.13,4434.96,4527.78,3933.12,3977.4900000000002,4418.13,3570.0
3.265625,4491.57,4697.1,4127.9400000000005,4201.89,4406.4,4705.77,4644.06,3804.6,4437.51,4528.8,3934.14,3970.86,4420.17,3569.4900000000002
3.2734375,4491.06,4699.14,4128.96,4206.4800000000005,4408.4400000000005,4709.34,4647.63,3799.5,4436.49,4527.27,3929.55,3967.29,4418.13,3568.4700000000003
3.28125,4490.55,4700.67,4129.47,4205.97,4405.38,4707.81,4644.57,3801.03,4435.9800000000005,4526.25,3930.06,3970.35,4417.62,3571.02
3.2890625,4489.02,4701.18,4129.47,4203.93,4405.38,4706.79,4646.1,3801.03,4436.49,4527.78,3930.57,3969.84,4418.13,3570.51
3.296875,4487.49,4702.2,4131.0,4205.97,4406.91,4707.81,4646.1,3801.54,4437.0,4528.8,3930.57,3971.37,4420.17,3571.02
3.3046875,4487.49,4702.71,4129.47,4205.97,4405.38,4708.32,4645.59,3805.11,4437.0,4528.8,3930.06,3972.9,4419.15,3571.02
3.3125,4486.47,4702.71,4127.9400000000005,4203.93,4405.89,4708.32,4646.61,3802.56,4435.9800000000005,4530.33,3931.08,3971.37,4417.62,3570.51
3.3203125,4484.9400000000005,4702.71,4125.9,4204.4400000000005,4406.4,4707.81,4646.1,3803.07,4434.45,4530.33,3934.65,3971.88,4418.13,3570.51
3.328125,4485.96,4704.24,4124.37,4208.52,4406.4,4706.28,4645.59,3808.17,4434.45,4528.8,3932.61,3976.98,4418.64,3570.0
3.3359375,4487.49,4703.22,4122.84,4210.05,4408.4400000000005,4704.24,4645.59,3808.6800000000003,4435.47,4528.8,3930.06,3978.51,4419.15,3572.55
3.34375,4490.04,4701.6900000000005,4122.84,4211.07,4410.99,4705.77,4645.59,3808.17,4435.9800000000005,4528.8,3930.06,3978.0,4416.09,3572.55
3.3515625,4492.59,4702.71,4124.88,4211.58,4410.4800000000005,4707.3,4644.57,3808.6800000000003,4436.49,4527.27,3929.55,3979.53,4415.07,3570.0
3.359375,4490.04,4700.16,4124.88,4210.05,4410.4800000000005,4705.77,4644.57,3805.11,4436.49,4528.29,3931.08,3975.96,4418.13,3572.04
3.3671875,4487.49,4697.1,4124.37,4212.6,4410.99,4707.3,4644.57,3802.56,4435.9800000000005,4530.33,3932.1,3971.88,4417.62,3572.55
3.375,4488.51,4697.1,4127.43,4211.58,4407.93,4709.34,4643.04,3805.62,4434.96,4529.31,3932.61,3973.92,4417.11,3570.0
3.3828125,4489.02,4698.12,4128.96,4203.42,4407.93,4708.32,4646.61,3804.6,4435.9800000000005,4528.29,3932.61,3973.41,4419.15,3569.4900000000002
3.390625,4489.02,4698.12,4125.39,4199.85,4408.4400000000005,4707.81,4648.65,3800.52,4438.53,4529.82,3930.57,3969.33,4420.17,3570.51
3.3984375,4490.04,4699.14,4124.37,4200.87,4404.36,4707.3,4643.55,3802.56,4438.02,4531.35,3932.1,3970.86,4421.1900000000005,3573.06
3.40625,4489.02,4701.6900000000005,4126.41,4202.91,4407.42,4707.3,4645.08,3803.58,4433.9400000000005,4527.78,3934.65,3974.4300000000003,4420.68,3573.57
3.4140625,4489.02,4700.16,4124.37,4203.42,4410.99,4708.83,4648.65,3802.05,4435.47,4525.2300000000005,3935.16,3975.4500000000003,4420.17,3572.04
3.421875,4491.06,4699.14,4120.29,4206.4800000000005,4407.93,4707.81,4646.1,3807.66,4437.51,4526.76,3934.14,3975.4500000000003,4419.15,3573.57
3.4296875,4490.04,4700.67,4121.82,4211.58,4406.91,4705.26,4643.04,3810.7200000000003,4434.45,4527.78,3934.14,3976.98,4418.13,3573.06
3.4375,4491.06,4700.16,4124.88,4209.54,4408.95,4705.77,4643.55,3806.13,4433.43,4527.27,3935.16,3978.51,4419.15,3569.4900000000002
3.4453125,4492.59,4700.67,4123.86,4206.99,4408.95,4710.36,4645.59,3803.58,4435.9800000000005,4528.29,3932.61,3976.98,4420.17,3569.4900000000002
3.453125,4490.04,4700.67,4123.35,4204.95,4406.91,4709.85,4645.08,3805.62,4437.0,4530.33,3932.1,3974.94,4418.64,3571.53
3.4609375,4489.02,4699.14,4128.45,4201.38,4407.42,4706.79,4644.06,3804.6,4437.51,4529.82,3934.14,3974.94,4418.64,3570.0
3.46875,4492.59,4701.18,4132.02,4204.4400000000005,4409.46,4708.83,4643.04,3803.07,4438.53,4527.78,3933.63,3973.92,4419.66,3572.04
3.4765625,4494.63,4701.6900000000005,4130.49,4203.42,4405.89,4706.79,4642.53,3803.07,4438.53,4527.78,3932.61,3972.39,4418.13,3573.06
3.484375,4489.53,4699.65,4128.45,4200.87,4405.38,4704.24,4643.55,3800.52,4437.51,4528.29,3931.59,3972.9,4416.09,3572.04
3.4921875,4486.47,4702.71,4128.96,4203.93,4408.4400000000005,4706.79,4647.63,3801.03,4434.96,4527.27,3931.59,3974.94,4417.11,3571.02
3.5,4491.57,4705.26,4126.92,4204.95,4407.42,4707.3,4647.63,3807.15,4433.9400000000005,4528.8,3931.08,3975.4500000000003,4418.64,3571.53
3.5078125,4491.06,4703.7300000000005,4124.37,4207.5,4404.87,4705.26,4645.59,3806.64,4434.96,4530.33,3930.06,3976.4700000000003,4416.6,3568.98
3.515625,4488.0,4701.6900000000005,4125.9,4206.99,4406.4,4704.24,4646.1,3802.05,4434.96,4530.33,3930.06,3978.0,4415.58,3569.4900000000002
3.5234375,4489.53,4701.6900000000005,4123.86,4208.01,4408.4400000000005,4705.26,4645.59,3803.58,4433.9400000000005,4529.31,3930.06,3978.0,4417.62,3572.04
3.53125,4490.55,4702.71,4124.88,4212.6,4406.91,4705.77,4645.08,3806.13,4433.9400000000005,4526.76,3932.1,3976.4700000000003,4419.15,3570.0
3.5390625,4491.06,4701.18,4129.9800000000005,4210.05,4406.4,4705.77,4646.61,3804.09,4437.0,4525.74,3935.16,3974.4300000000003,4419.66,3571.02
3.546875,4492.59,4699.14,4128.96,4208.52,4407.42,4706.79,4647.12,3804.09,4439.55,4527.78,3933.12,3973.92,4419.66,3571.53
3.5546875,4491.57,4699.14,4129.47,4211.07,4406.91,4708.32,4643.55,3802.56,4435.9800000000005,4528.29,3930.06,3971.37,4418.13,3570.0
3.5625,4489.02,4700.16,4132.02,4209.54,4408.4400000000005,4709.34,4646.1,3802.05,4432.92,4527.27,3931.08,3969.33,4415.58,3570.0
3.5703125,4488.51,4700.67,4132.02,4207.5,4409.46,4707.81,4647.12,3804.6,4433.43,4527.27,3932.61,3971.88,4414.05,3570.51
3.578125,4488.51,4701.18,4129.9800000000005,4205.97,4408.4400000000005,4705.26,4642.53,3807.15,4434.45,4528.29,3932.61,3973.92,4418.13,3572.04
3.5859375,4490.55,4703.22,4126.41,4201.89,4405.89,4706.28,4646.1,3807.15,4434.45,4529.31,3930.57,3976.4700000000003,4419.66,3571.53
3.59375,4490.04,4702.71,4122.33,4204.95,4406.91,4708.32,4648.65,3808.17,4435.9800000000005,4530.33,3930.06,3978.51,4419.15,3570.51
3.6015625,4488.0,4702.2,4120.8,4206.4800000000005,4408.95,4707.81,4644.06,3807.66,4435.9800000000005,4529.31,3930.06,3977.4900000000002,4420.68,3570.51
3.609375,4490.04,4702.2,4122.33,4202.91,4407.93,4707.3,4645.08,3805.11,4434.96,4527.27,3931.59,3975.96,4419.15,3571.53
3.6171875,4491.06,4697.61,4121.31,4212.09,4404.87,4705.77,4643.04,3807.66,4435.9800000000005,4530.84,3931.59,3979.02,4418.13,3571.53
3.625,4489.02,4698.63,4123.35,4206.99,4405.89,4706.28,4645.08,3807.66,4433.9400000000005,4529.31,3931.08,3979.02,4417.62,3570.51
3.6328125,4490.04,4698.12,4124.37,4204.4400000000005,4405.38,4706.28,4646.1,3807.15,4435.9800000000005,4526.25,3930.57,3976.4700000000003,4416.09,3571.02
3.640625,4491.06,4698.12,4124.88,4208.52,4404.87,4706.28,4644.57,3804.6,4438.02,4527.78,3930.06,3974.4300000000003,4416.09,3572.04
3.6484375,4491.06,4697.61,4125.9,4203.93,4406.91,4707.3,4645.08,3806.13,4437.0,4529.82,3933.63,3975.4500000000003,4418.64,3571.02
3.65625,4490.55,4698.63,4126.41,4199.34,4410.4800000000005,4708.32,4648.65,3805.11,4434.45,4529.31,3933.63,3971.88,4417.62,3571.02
3.6640625,4489.53,4701.18,4125.9,4202.4,4409.46,4707.3,4650.18,3801.03,4433.43,4526.76,3931.08,3971.37,4415.58,3571.02
3.671875,4489.02,4700.67,4124.88,4200.87,4407.93,4707.3,4647.63,3802.05,4437.0,4526.25,3933.12,3974.4300000000003,4418.13,3571.02
3.6796875,4489.53,4700.16,4127.9400000000005,4202.91,4410.4800000000005,4707.3,4647.12,3804.6,4439.55,4528.8,3933.63,3971.88,4418.64,3571.02
3.6875,4489.53,4700.16,4125.9,4206.99,4407.42,4706.79,4646.61,3805.62,4435.47,4529.82,3931.59,3973.41,4418.13,3573.57
3.6953125,4492.08,4701.6900000000005,4121.31,4209.03,4404.87,4709.34,4645.59,3808.6800000000003,4432.41,4528.8,3931.08,3977.4900000000002,4418.64,3575.61
3.703125,4494.12,4702.71,4124.37,4210.05,4407.93,4710.36,4646.61,3809.7000000000003,4433.43,4527.78,3933.63,3976.98,4420.17,3572.55
3.7109375,4492.08,4700.67,4126.41,4208.52,4406.4,4707.81,4647.12,3807.66,4434.45,4529.31,3933.63,3977.4900000000002,4421.1900000000005,3568.98
3.71875,4492.59,4699.65,4122.33,4209.03,4405.89,4707.81,4647.12,3808.17,4436.49,4529.82,3931.59,3979.53,4419.66,3571.02
3.7265625,4494.63,4701.6900000000005,4125.9,4205.46,4409.46,4706.28,4644.57,3807.66,4438.02,4529.31,3932.61,3975.96,4418.13,3575.1
3.734375,4492.08,4701.6900000000005,4132.02,4200.36,4407.93,4707.3,4645.59,3803.58,4436.49,4528.8,3933.63,3969.84,4419.66,3572.55
3.7421875,4490.04,4699.14,4129.9800000000005,4202.4,4405.89,4710.36,4648.14,3801.03,4435.47,4527.27,3930.57,3972.9,4419.66,3568.98
3.75,4490.55,4699.14,4126.92,4202.91,4407.42,4708.32,4645.08,3802.56,4438.02,4525.74,3931.59,3975.96,4417.62,3571.02
3.7578125,4489.02,4702.2,4127.43,4200.87,4405.89,4707.81,4644.57,3803.07,4437.51,4527.27,3935.16,3972.9,4416.6,3571.02
3.765625,4489.53,4703.7300000000005,4127.9400000000005,4203.93,4402.83,4710.87,4646.61,3801.54,4434.45,4529.82,3933.12,3971.88,4417.62,3568.98
3.7734375,4490.55,4702.71,4125.9,4210.05,4405.89,4708.83,4646.61,3802.56,4433.43,4529.31,3932.1,3975.4500000000003,4420.17,3571.02
3.78125,4489.53,4703.22,4123.35,4210.56,4408.4400000000005,4705.77,4646.61,3801.03,4434.45,4527.78,3932.61,3977.4900000000002,4420.68,3573.57
3.7890625,4489.53,4705.26,4125.9,4205.46,4406.91,4708.83,4648.14,3803.07,4435.9800000000005,4529.31,3931.08,3976.4700000000003,4419.15,3573.06
3.796875,4488.51,4704.24,4124.37,4209.03,4408.95,4709.85,4648.14,3806.64,4435.47,4529.82,3929.04,3975.96,4419.15,3568.98
3.8046875,4488.51,4702.71,4122.84,4214.64,4411.5,4705.77,4645.59,3803.58,4432.41,4529.31,3931.08,3974.94,4421.7,3569.4900000000002
3.8125,4489.53,4702.2,4126.92,4210.05,4407.42,4704.75,4645.59,3802.05,4432.92,4529.82,3929.55,3972.39,4419.15,3573.06
3.8203125,4489.02,4703.22,4127.9400000000005,4210.05,4405.38,4708.32,4647.12,3804.6,4437.51,4529.31,3927.0,3972.39,4415.07,3572.55
3.828125,4489.02,4700.67,4125.9,4207.5,4406.91,4707.81,4647.12,3804.09,4438.02,4527.78,3933.12,3972.9,4417.62,3572.04
3.8359375,4490.55,4699.14,4127.43,4203.42,4408.95,4706.28,4645.59,3801.03,4435.47,4528.29,3934.65,3970.86,4418.13,3571.53
3.84375,4492.08,4701.6900000000005,4127.43,4205.97,4409.46,4707.81,4646.61,3801.03,4434.96,4528.8,3930.57,3971.88,4417.11,3569.4900000000002
3.8515625,4491.57,4700.67,4125.39,4202.91,4406.4,4710.36,4648.14,3804.09,4435.47,4528.8,3931.59,3972.9,4418.64,3570.0
3.859375,4489.53,4697.61,4127.43,4200.36,4405.89,4709.85,4646.1,3803.07,4435.9800000000005,4528.29,3932.61,3969.84,4417.62,3570.51
3.8671875,4488.51,4699.65,4127.43,4202.91,4406.4,4708.32,4642.53,3802.56,4437.0,4527.78,3933.12,3970.35,4417.62,3571.53
3.875,4490.55,4702.71,4125.9,4202.4,4407.42,4707.81,4645.59,3803.58,4435.47,4527.78,3934.14,3971.37,4421.7,3573.06
3.8828125,4489.53,4703.22,4127.9400000000005,4202.91,4408.95,4707.81,4646.1,3803.58,4434.45,4528.8,3933.63,3973.41,4420.17,3572.55
3.890625,4487.49,4701.18,4124.37,4203.93,4407.42,4706.28,4642.02,3803.58,4436.49,4530.33,3933.63,3975.4500000000003,4418.13,3571.53
3.8984375,4488.0,4701.18,4120.29,4203.42,4406.4,4706.28,4646.1,3803.58,4434.96,4529.82,3932.61,3973.41,4418.64,3571.53
3.90625,4489.53,4701.6900000000005,4123.86,4206.4800000000005,4405.89,4706.28,4648.14,3804.09,4432.41,4528.29,3934.14,3974.4300000000003,4419.15,3570.51
3.9140625,4491.06,4702.71,4125.9,4209.03,4404.87,4704.75,4645.08,3807.15,4432.92,4528.29,3934.65,3978.0,4419.15,3571.02
3.921875,4490.04,4704.24,4123.35,4204.4400000000005,4406.91,4704.24,4646.1,3807.15,4433.43,4527.27,3930.57,3978.0,4420.17,3572.04
3.9296875,4490.04,4701.6900000000005,4124.37,4201.89,4408.4400000000005,4703.7300000000005,4644.06,3805.62,4434.45,4527.27,3929.55,3976.4700000000003,4421.1900000000005,3571.02
3.9375,4490.55,4700.67,4124.88,4204.95,4407.93,4707.3,4643.04,3807.66,4434.96,4528.8,3933.12,3975.96,4419.66,3570.51
3.9453125,4491.06,4701.18,4123.35,4202.91,4404.87,4709.34,4644.57,3806.64,4436.49,4527.78,3936.1800000000003,3973.92,4418.13,3571.53
3.953125,4492.08,4698.63,4127.43,4197.81,4404.36,4706.79,4644.57,3801.54,4439.04,4525.74,3934.65,3970.86,4418.13,3570.51
3.9609375,4490.04,4700.16,4129.9800000000005,4202.4,4407.93,4706.79,4645.59,3800.52,4437.51,4526.76,3932.61,3970.35,4418.13,3571.02
3.96875,4488.0,4702.71,4126.92,4204.4400000000005,4408.95,4705.77,4645.08,3804.09,4434.96,4529.82,3934.14,3968.82,4417.11,3573.57
3.9765625,4485.45,4700.16,4125.39,4203.93,4406.4,4706.79,4644.06,3803.58,4436.49,4529.31,3933.12,3968.82,4417.11,3574.08
3.984375,4488.0,4698.63,4126.92,4208.52,4406.91,4707.81,4644.57,3801.03,4437.0,4526.76,3932.61,3973.92,4419.15,3573.06
3.9921875,4491.57,4703.7300000000005,4126.41,4207.5,4407.42,4707.81,4646.1,3803.07,4434.96,4527.27,3932.1,3976.98,4417.62,3571.02
4.0,4489.02,4706.28,4124.88,4207.5,4406.91,4708.83,4647.63,3807.15,4434.45,4527.78,3929.55,3975.96,4416.6,3567.96
4.0078125,4489.53,4703.7300000000005,4124.88,4212.09,4407.93,4706.28,4646.1,3804.09,4433.43,4528.8,3931.59,3976.4700000000003,4419.15,3571.53
4.015625,4494.12,4701.6900000000005,4122.84,4212.6,4407.42,4706.28,4645.59,3802.56,4432.41,4530.33,3932.61,3976.98,4420.68,3572.55
4.0234375,4491.06,4701.6900000000005,4125.39,4209.54,4405.89,4707.3,4647.12,3804.6,4434.45,4528.8,3928.53,3973.92,4418.64,3567.4500000000003
4.03125,4488.0,4702.2,4129.9800000000005,4208.01,4406.91,4706.28,4645.08,3804.09,4436.49,4526.76,3930.06,3968.31,4418.64,3568.98
4.0390625,4491.57,4700.16,4127.43,4211.07,4407.42,4707.3,4644.06,3801.03,4435.9800000000005,4527.78,3932.61,3968.82,4417.62,3570.51
4.046875,4494.12,4699.65,4130.49,4211.07,4405.89,4708.32,4644.06,3799.5,4437.51,4527.27,3932.1,3971.37,4418.64,3569.4900000000002
4.0546875,4492.59,4702.2,4134.06,4206.4800000000005,4405.38,4706.28,4642.53,3803.07,4438.02,4525.74,3931.08,3967.29,4420.68,3570.51
4.0625,4489.53,4701.6900000000005,4127.9400000000005,4205.97,4406.4,4704.75,4642.02,3804.6,4434.96,4527.27,3931.08,3967.29,4418.64,3571.53
4.0703125,4487.49,4699.65,4125.39,4205.97,4408.95,4707.3,4644.06,3803.07,4435.47,4528.29,3930.57,3974.4300000000003,4419.15,3575.1
4.078125,4487.49,4702.71,4127.43,4201.89,4408.95,4708.32,4647.63,3803.58,4441.08,4527.27,3932.1,3976.4700000000003,4419.66,3573.06
4.0859375,4486.47,4704.24,4124.88,4204.4400000000005,4405.89,4706.28,4647.12,3806.13,4437.51,4529.82,3934.14,3974.4300000000003,4418.64,3567.96
4.09375,4487.49,4702.2,4119.78,4209.54,4404.87,4706.28,4644.06,3809.19,4431.9,4530.84,3931.08,3977.4900000000002,4419.66,3571.02
4.1015625,4489.02,4702.2,4121.31,4206.99,4405.89,4708.32,4645.08,3809.7000000000003,4434.45,4529.31,3931.08,3979.02,4419.15,3573.57
4.109375,4489.02,4698.63,4123.86,4204.4400000000005,4405.38,4705.77,4645.08,3808.6800000000003,4438.02,4528.29,3932.61,3976.98,4419.15,3571.02
4.1171875,4491.06,4697.1,4122.84,4212.09,4404.87,4705.26,4646.1,3808.6800000000003,4436.49,4526.25,3929.04,3976.98,4419.15,3568.98
4.125,4493.61,4700.16,4122.84,4213.11,4405.89,4709.34,4647.63,3809.19,4437.0,4524.72,3930.57,3978.51,4418.13,3571.02
4.1328125,4491.06,4698.12,4122.84,4205.46,4407.42,4708.83,4647.12,3806.13,4437.51,4526.25,3933.63,3975.4500000000003,4417.11,3571.53
4.140625,4489.53,4695.57,4123.86,4204.95,4407.42,4707.81,4645.59,3803.58,4436.49,4527.78,3932.1,3973.92,4416.09,3572.55
4.1484375,4491.06,4699.65,4124.88,4201.38,4406.4,4708.83,4644.57,3808.17,4437.0,4526.76,3933.63,3975.96,4417.62,3572.55
4.15625,4490.04,4702.71,4123.35,4199.34,4407.42,4706.79,4644.57,3807.15,4438.02,4527.27,3934.65,3972.9,4419.15,3570.51
4.1640625,4489.02,4698.63,4124.37,4200.87,4404.87,4704.75,4644.06,3803.07,4434.96,4528.29,3932.61,3972.39,4418.13,3570.0
4.171875,4490.55,4698.12,4126.41,4197.81,4402.83,4707.81,4642.53,3806.64,4433.9400000000005,4529.82,3932.1,3978.0,4417.11,3570.0
4.1796875,4492.08,4703.7300000000005,4125.9,4201.38,4406.91,4707.81,4644.57,3807.66,4436.49,4528.29,3932.61,3975.4500000000003,4417.11,3570.0
4.1875,4492.59,4702.2,4124.88,4207.5,4408.4400000000005,4703.7300000000005,4646.1,3804.6,4436.49,4526.76,3933.63,3973.92,4419.15,3572.04
4.1953125,4492.59,4698.63,4123.35,4207.5,4407.93,4707.3,4647.12,3808.6800000000003,4434.45,4528.8,3933.63,3979.02,4419.66,3571.02
4.203125,4492.08,4701.6900000000005,4123.35,4207.5,4408.95,4710.87,4645.59,3810.7200000000003,4434.45,4528.8,3931.59,3980.04,4418.13,3569.4900000000002
4.2109375,4492.59,4702.2,4124.37,4205.97,4407.93,4706.79,4643.55,3807.66,4435.9800000000005,4525.74,3931.59,3974.4300000000003,4419.15,3574.59
4.21875,4490.55,4701.18,4125.39,4206.4800000000005,4407.42,4706.28,4648.14,3805.62,4434.45,4525.74,3933.12,3973.41,4420.68,3575.1
4.2265625,4489.53,4702.2,4127.9400000000005,4206.99,4408.4400000000005,4705.77,4647.12,3804.09,4433.9400000000005,4527.78,3933.63,3974.4300000000003,4419.66,3572.04
4.234375,4489.53,4700.67,4128.45,4202.4,4405.89,4705.26,4642.53,3802.56,4436.49,4527.27,3933.63,3970.86,4417.62,3571.53
4.2421875,4486.9800000000005,4699.65,4128.45,4203.93,4405.38,4707.3,4645.59,3802.56,4438.02,4525.74,3931.08,3967.8,4418.64,3571.02
4.25,4487.49,4700.16,4128.45,4207.5,4407.42,4708.83,4648.65,3801.54,4436.49,4526.76,3930.06,3969.84,4419.15,3571.02
4.2578125,4489.02,4698.63,4126.41,4204.95,4406.91,4709.34,4646.1,3798.9900000000002,4433.43,4528.8,3931.59,3973.92,4416.6,3572.04
4.265625,4489.53,4698.12,4127.43,4208.01,4406.91,4707.3,4645.08,3800.52,4434.96,4528.8,3932.1,3973.92,4417.62,3572.55
4.2734375,4489.02,4701.18,4125.39,4213.62,4408.4400000000005,4706.28,4647.12,3806.13,4438.53,4529.31,3930.57,3974.4300000000003,4419.15,3572.04
4.28125,4487.49,4703.22,4122.84,4214.64,4407.42,4707.81,4646.61,3805.62,4436.49,4529.82,3930.57,3978.0,4416.6,3572.55
4.2890625,4488.51,4701.18,4125.39,4212.09,4405.89,4705.77,4646.1,3802.56,4434.45,4528.8,3932.61,3979.02,4417.62,3575.61
4.296875,4491.06,4701.18,4127.43,4212.09,4408.95,4704.24,4647.12,3805.11,4437.0,4529.31,3932.1,3975.4500000000003,4419.66,3573.06
4.3046875,4489.53,4701.18,4126.92,4211.58,4410.4800000000005,4707.81,4647.63,3807.15,4438.02,4531.86,3932.1,3972.39,4419.66,3569.4900000000002
4.3125,4488.51,4698.12,4128.45,4207.5,4407.42,4710.36,4647.63,3804.09,4437.0,4529.31,3932.61,3968.82,4419.66,3569.4900000000002
4.3203125,4493.1,4696.59,4128.96,4205.46,4407.93,4707.81,4648.14,3801.54,4437.0,4526.76,3931.08,3969.84,4418.64,3568.98
4.328125,4492.08,4695.57,4127.9400000000005,4203.93,4408.4400000000005,4706.28,4647.63,3804.09,4437.51,4530.84,3933.12,3974.94,4418.64,3571.53
4.3359375,4487.49,4697.1,4126.92,4200.87,4406.4,4707.81,4647.63,3807.66,4435.47,4530.84,3933.12,3974.4300000000003,4417.62,3573.57
4.34375,4486.9800000000005,4700.67,4124.37,4199.85,4407.42,4708.83,4646.1,3806.13,4434.96,4526.76,3930.57,3975.96,4417.11,3571.53
4.3515625,4488.0,4701.18,4121.82,4199.85,4409.46,4705.26,4644.57,3806.13,4435.9800000000005,4529.31,3930.57,3979.02,4420.68,3571.02
4.359375,4488.0,4699.14,4121.82,4202.91,4407.93,4704.75,4647.63,3806.13,4435.47,4530.33,3931.08,3978.0,4420.17,3570.51
4.3671875,4488.51,4699.14,4121.31,4201.89,4406.4,4707.81,4646.61,3806.64,4434.96,4528.8,3932.1,3980.04,4416.6,3570.51
4.375,4487.49,4703.22,4118.25,4203.93,4409.46,4709.85,4644.06,3809.7000000000003,4434.45,4529.82,3933.63,3982.08,4418.13,3571.53
4.3828125,4488.51,4704.24,4119.78,4208.52,4410.99,4709.85,4645.59,3809.7000000000003,4434.96,4528.8,3931.59,3980.04,4420.68,3571.02
4.390625,4494.12,4699.65,4124.37,4204.95,4407.42,4707.3,4647.12,3807.15,4437.51,4526.25,3931.59,3978.0,4419.15,3568.98
4.3984375,4491.57,4699.14,4126.41,4206.4800000000005,4406.91,4707.81,4648.14,3805.62,4435.9800000000005,4526.76,3931.08,3978.0,4417.62,3570.0
4.40625,4489.53,4701.18,4125.9,4206.4800000000005,4407.42,4708.83,4645.59,3806.64,4432.92,4528.29,3932.1,3975.96,4418.13,3572.55
4.4140625,4494.12,4699.14,4124.88,4201.89,4407.42,4707.3,4643.04,3805.62,4437.51,4528.8,3933.63,3971.88,4418.64,3572.55
4.421875,4492.08,4700.16,4125.39,4205.97,4407.42,4705.77,4646.1,3804.09,4439.04,4529.31,3931.59,3971.37,4418.13,3571.53
4.4296875,4490.55,4703.22,4126.92,4204.4400000000005,4406.4,4704.75,4646.61,3803.07,4435.9800000000005,4526.25,3930.06,3971.88,4418.13,3571.53
4.4375,4489.53,4703.22,4126.92,4199.85,4407.93,4706.79,4644.57,3803.07,4436.49,4526.25,3931.59,3970.86,4419.15,3572.55
4.4453125,4488.51,4703.22,4124.88,4201.89,4408.95,4706.79,4646.61,3803.58,4437.0,4530.84,3932.61,3968.82,4419.15,3573.06
4.453125,4490.04,4702.2,4124.37,4204.95,4405.38,4704.75,4647.12,3804.09,4432.92,4530.84,3930.06,3969.84,4417.11,3571.53
4.4609375,4491.06,4701.6900000000005,4125.9,4208.52,4405.38,4707.81,4644.57,3804.6,4430.88,4527.78,3929.55,3972.39,4418.13,3571.53
4.46875,4492.08,4701.6900000000005,4126.92,4212.09,4408.95,4706.79,4645.59,3804.09,4434.96,4528.29,3932.61,3972.39,4419.66,3573.06
4.4765625,4493.1,4700.67,4123.86,4214.13,4409.46,4704.24,4646.61,3805.11,4438.02,4527.27,3931.59,3973.41,4417.11,3568.98
4.484375,4490.55,4699.65,4122.84,4214.64,4407.42,4706.28,4645.59,3806.13,4434.96,4525.74,3929.55,3973.92,4416.09,3568.4700000000003
4.4921875,4489.53,4700.67,4125.39,4212.6,4407.93,4707.81,4646.1,3803.58,4434.96,4528.8,3931.08,3972.39,4417.62,3573.06
4.5,4491.57,4702.71,4125.9,4211.07,4410.4800000000005,4706.79,4646.61,3801.54,4438.02,4530.84,3930.57,3970.86,4415.58,3571.53
4.5078125,4488.51,4701.6900000000005,4127.43,4210.05,4409.97,4707.3,4644.06,3802.56,4439.04,4528.8,3931.08,3971.37,4417.62,3571.02
4.515625,4485.45,4700.16,4129.47,4206.4800000000005,4406.4,4708.83,4645.08,3802.56,4437.0,4528.29,3932.61,3972.39,4420.68,3573.57
4.5234375,4488.51,4699.14,4128.45,4207.5,4405.89,4707.81,4646.61,3803.07,4437.0,4530.84,3931.59,3972.39,4419.15,3571.02
4.53125,4490.55,4700.16,4126.41,4208.01,4407.42,4705.77,4643.55,3804.6,4437.0,4531.86,3931.59,3972.9,4417.62,3570.51
4.5390625,4489.02,4702.71,4126.41,4204.4400000000005,4408.4400000000005,4706.79,4644.06,3804.6,4435.9800000000005,4530.33,3931.59,3974.94,4418.64,3572.55
4.546875,4489.53,4701.6900000000005,4125.9,4206.4800000000005,4407.42,4706.79,4645.08,3807.15,4438.02,4529.82,3931.59,3978.0,4420.17,3571.53
4.5546875,4491.57,4700.67,4121.31,4211.58,4405.89,4705.77,4646.61,3808.6800000000003,4438.02,4530.33,3931.08,3977.4900000000002,4420.17,3571.53
4.5625,4492.08,4700.16,4118.76,4211.07,4406.4,4706.28,4649.67,3806.13,4435.47,4527.78,3931.59,3979.02,4419.66,3571.02
4.5703125,4491.06,4697.61,4120.8,4206.99,4408.95,4706.79,4645.59,3806.64,4436.49,4528.8,3932.1,3982.08,4419.66,3569.4900000000002
4.578125,4492.08,4699.65,4120.8,4206.99,4409.97,4706.28,4642.53,3807.15,4435.9800000000005,4529.31,3931.08,3979.02,4419.15,3569.4900000000002
4.5859375,4492.08,4702.71,4122.84,4202.4,4407.93,4705.77,4645.59,3805.62,4434.96,4527.78,3934.14,3979.02,4418.13,3570.0
4.59375,4490.55,4697.61,4128.96,4197.81,4406.91,4706.28,4650.6900000000005,3805.62,4437.0,4529.31,3933.12,3976.98,4416.6,3568.98
4.6015625,4491.06,4695.57,4129.47,4203.42,4406.4,4707.3,4650.6900000000005,3805.11,4438.53,4528.29,3931.08,3973.41,4415.58,3570.0
4.609375,4491.57,4697.61,4124.88,4201.38,4406.4,4707.3,4645.59,3804.6,4438.02,4525.2300000000005,3933.63,3977.4900000000002,4417.62,3573.06
4.6171875,4490.04,4698.63,4128.96,4199.85,4405.89,4707.3,4650.6900000000005,3806.64,4436.49,4530.33,3932.61,3973.41,4417.11,3567.96
4.625,4491.06,4704.24,4124.88,4201.38,4406.4,4708.32,4646.61,3808.17,4436.49,4528.29,3935.16,3974.94,4417.11,3570.0
4.6328125,4491.06,4705.77,4121.31,4204.95,4406.91,4708.83,4644.06,3805.62,4437.51,4526.76,3935.16,3979.02,4418.64,3573.06
4.640625,4490.55,4702.2,4124.37,4205.97,4406.91,4708.83,4646.1,3806.13,4434.96,4529.31,3932.61,3978.0,4420.17,3573.57
4.6484375,4490.04,4703.7300000000005,4124.37,4206.4800000000005,4407.93,4709.34,4646.1,3809.19,4434.45,4529.31,3931.59,3977.4900000000002,4419.15,3570.51
4.65625,4491.57,4705.26,4124.37,4206.99,4407.42,4708.32,4643.55,3808.17,4435.9800000000005,4528.29,3934.65,3977.4900000000002,4417.62,3569.4900000000002
4.6640625,4494.63,4697.61,4125.39,4206.4800000000005,4407.42,4706.79,4645.08,3804.09,4436.49,4528.29,3933.63,3972.9,4417.62,3572.55
4.671875,4493.1,4694.04,4124.88,4209.03,4407.93,4708.83,4648.65,3802.05,4435.9800000000005,4528.29,3930.06,3972.39,4416.09,3572.04
4.6796875,4490.04,4699.14,4125.9,4205.46,4406.4,4706.79,4645.59,3803.58,4434.45,4528.29,3932.1,3974.4300000000003,4417.62,3571.53
4.6875,4490.55,4699.65,4126.92,4200.36,4408.4400000000005,4706.28,4645.59,3804.09,4435.9800000000005,4528.29,3934.65,3968.82,4421.1900000000005,3573.06
4.6953125,4490.55,4697.1,4125.39,4204.95,4409.97,4708.83,4647.63,3801.03,4437.51,4527.78,3932.1,3968.82,4420.17,3574.08
4.703125,4488.0,4701.18,4125.9,4203.93,4404.87,4710.36,4645.59,3803.07,4434.45,4527.78,3933.12,3973.92,4419.15,3572.55
4.7109375,4487.49,4704.75,4128.45,4198.83,4403.85,4711.38,4646.61,3807.15,4433.9400000000005,4529.82,3932.61,3972.39,4420.17,3569.4900000000002
4.71875,4490.04,4702.71,4128.45,4200.87,4408.4400000000005,4707.3,4646.61,3804.6,4435.9800000000005,4530.84,3932.1,3970.35,4419.66,3570.51
4.7265625,4489.02,4702.2,4124.37,4204.95,4408.4400000000005,4703.7300000000005,4646.1,3801.54,4435.9800000000005,4528.8,3933.63,3973.41,4418.64,3573.06
4.734375,4487.49,4702.71,4123.86,4208.52,4405.89,4705.26,4647.12,3802.56,4435.9800000000005,4527.27,3931.08,3974.4300000000003,4417.11,3573.06
4.7421875,4490.04,4701.18,4126.92,4210.56,4405.38,4706.79,4647.63,3805.62,4436.49,4529.31,3929.55,3973.92,4417.62,3571.53
4.75,4490.04,4702.71,4123.86,4211.58,4406.91,4705.77,4648.14,3805.62,4434.96,4529.31,3932.1,3976.98,4419.15,3571.02
4.7578125,4488.0,4702.2,4121.82,4210.05,4405.89,4706.28,4646.61,3804.09,4434.96,4528.29,3934.65,3976.98,4418.64,3570.51
4.765625,4488.0,4699.14,4124.37,4209.54,4404.36,4707.81,4646.1,3806.64,4434.96,4530.33,3932.1,3974.4300000000003,4417.62,3569.4900000000002
4.7734375,4489.53,4701.18,4125.9,4212.09,4409.46,4708.32,4648.14,3807.15,4433.9400000000005,4528.8,3930.06,3976.4700000000003,4418.64,3568.98
4.78125,4490.04,4701.18,4123.86,4206.4800000000005,4412.52,4706.28,4645.59,3804.6,4435.9800000000005,4523.7,3932.1,3975.4500000000003,4419.15,3572.55
4.7890625,4490.55,4699.14,4124.37,4201.89,4410.4800000000005,4705.26,4642.53,3802.56,4437.51,4526.76,3932.1,3970.35,4417.62,3572.04
4.796875,4489.53,4699.65,4129.47,4202.91,4407.93,4705.77,4645.08,3801.54,4437.0,4529.31,3933.63,3972.39,4417.62,3570.0
4.8046875,4489.02,4698.12,4130.49,4197.81,4405.89,4706.28,4644.57,3801.54,4437.51,4526.25,3937.2000000000003,3975.96,4421.7,3571.02
4.8125,4490.04,4697.61,4125.39,4197.3,4405.89,4707.81,4645.08,3801.54,4436.49,4526.76,3934.14,3972.39,4421.1900000000005,3570.0
4.8203125,4488.51,4698.12,4122.33,4201.89,4406.91,4707.3,4647.63,3803.07,4435.47,4529.82,3930.06,3972.9,4421.1900000000005,3569.4900000000002
4.828125,4488.51,4699.14,4122.84,4202.4,4406.4,4706.28,4648.65,3806.13,4433.43,4528.29,3932.1,3975.4500000000003,4420.68,3570.51
4.8359375,4489.02,4699.65,4124.88,4203.42,4405.38,4707.3,4647.63,3805.62,4432.92,4527.27,3934.14,3976.98,4419.15,3570.51
4.84375,4489.02,4700.67,4125.39,4206.99,4405.89,4707.3,4648.14,3806.13,4435.47,4529.31,3933.63,3978.51,4420.17,3571.02
4.8515625,4486.9800000000005,4703.7300000000005,4124.88,4206.4800000000005,4408.95,4705.77,4650.6900000000005,3808.17,4436.49,4527.27,3931.59,3979.02,4419.66,3571.02
4.859375,4489.02,4704.24,4125.39,4199.85,4408.4400000000005,4706.28,4647.12,3807.66,4437.51,4525.74,3932.1,3979.02,4418.64,3571.53
4.8671875,4492.59,4701.18,4124.88,4203.93,4406.4,4708.83,4644.57,3806.64,4437.0,4527.27,3932.61,3978.51,4419.66,3573.06
4.875,4491.06,4701.6900000000005,4125.9,4212.09,4407.93,4708.32,4646.61,3807.15,4434.96,4527.78,3933.12,3976.4700000000003,4420.68,3571.53
4.8828125,4490.04,4703.22,4125.9,4204.4400000000005,4408.4400000000005,4707.81,4645.59,3806.13,4437.0,4528.29,3934.14,3973.41,4419.66,3570.0
4.890625,4492.08,4701.18,4121.82,4202.91,4407.93,4712.91,4645.08,3804.09,4437.0,4528.29,3933.12,3973.92,4419.15,3571.53
4.8984375,4492.59,4700.67,4121.82,4205.97,4406.91,4709.85,4646.1,3806.13,4433.43,4526.76,3932.1,3974.94,4420.68,3571.53
4.90625,4492.59,4701.18,4125.9,4200.87,4406.4,4704.24,4646.61,3805.62,4435.47,4526.25,3931.08,3971.37,4419.66,3570.0
4.9140625,4491.06,4700.67,4126.41,4201.38,4407.42,4706.79,4647.12,3801.03,4437.51,4526.25,3930.57,3969.84,4419.15,3571.02
4.921875,4491.06,4700.67,4126.41,4203.93,4407.42,4707.3,4647.63,3801.54,4435.9800000000005,4526.25,3930.57,3973.41,4419.15,3573.06
4.9296875,4489.53,4702.71,4126.92,4204.95,4407.93,4707.81,4647.12,3803.58,4435.9800000000005,4525.74,3929.55,3974.94,4418.64,3571.53
4.9375,4489.53,4703.22,4124.37,4206.4800000000005,4408.95,4707.81,4646.1,3803.07,4437.51,4527.27,3930.57,3971.88,4419.15,3570.0
4.9453125,4493.61,4702.2,4121.31,4204.95,4406.91,4704.75,4646.1,3805.11,4437.0,4530.33,3931.08,3972.9,4422.21,3571.53
4.953125,4491.57,4701.18,4125.39,4209.03,4406.4,4705.26,4646.61,3807.66,4435.9800000000005,4529.31,3929.55,3975.96,4421.7,3570.51
4.9609375,4489.53,4700.16,4128.45,4215.15,4409.97,4706.79,4646.61,3807.15,4437.0,4527.27,3931.59,3974.4300000000003,4419.66,3568.4700000000003
4.96875,4491.57,4701.18,4123.35,4213.11,4407.93,4706.79,4646.61,3808.17,4436.49,4527.78,3933.12,3974.94,4419.15,3567.4500000000003
4.9765625,4491.57,4701.6900000000005,4124.37,4212.09,4403.34,4705.77,4644.57,3806.13,4435.47,4527.27,3932.1,3973.92,4420.17,3569.4900000000002
4.984375,4490.55,4699.65,4128.96,4210.56,4405.89,4704.24,4646.61,3802.56,4437.51,4527.78,3931.59,3968.82,4419.66,3572.04
4.9921875,4490.55,4699.14,4127.43,4208.01,4410.4800000000005,4706.28,4651.71,3805.62,4437.51,4528.8,3932.1,3970.86,4417.11,3569.4900000000002
5.0,4491.57,4701.18,4126.92,4205.97,4407.93,4708.32,4648.14,3805.62,4434.96,4529.31,3931.59,3972.9,4420.17,3568.98
5.0078125,4491.57,4702.2,4128.45,4201.89,4404.36,4707.81,4645.59,3801.03,4435.47,4528.29,3929.55,3969.33,4421.7,3571.53
5.015625,4489.02,4701.18,4126.92,4201.89,4407.42,4705.77,4647.12,3802.56,4437.0,4527.78,3932.1,3971.88,4418.64,3571.53
5.0234375,4485.96,4700.67,4123.86,4204.4400000000005,4409.97,4706.28,4644.06,3807.66,4436.49,4527.78,3935.67,3978.0,4419.66,3571.02
5.03125,4488.0,4701.6900000000005,4123.35,4207.5,4406.91,4708.32,4644.06,3807.66,4435.47,4528.8,3933.12,3976.98,4420.17,3568.98
5.0390625,4491.57,4698.12,4121.82,4210.56,4404.36,4709.34,4645.59,3807.66,4438.02,4530.33,3931.59,3978.0,4418.13,3568.4700000000003
5.046875,4490.04,4697.1,4119.27,4212.6,4407.93,4707.3,4646.1,3808.6800000000003,4439.04,4530.33,3933.63,3979.02,4416.6,3571.53
5.0546875,4488.51,4701.18,4123.35,4209.54,4410.99,4706.28,4647.63,3806.64,4437.0,4528.29,3934.14,3979.53,4419.15,3571.53
5.0625,4491.06,4699.65,4127.9400000000005,4206.99,4408.4400000000005,4708.32,4646.61,3806.64,4438.02,4525.2300000000005,3933.63,3980.55,4421.7,3568.4700000000003
5.0703125,4494.12,4698.63,4127.43,4209.54,4406.91,4707.3,4646.61,3806.13,4439.55,4525.2300000000005,3933.63,3978.0,4420.17,3571.53
5.078125,4492.59,4700.16,4128.45,4205.46,4405.38,4704.75,4647.63,3804.09,4438.02,4528.29,3934.65,3976.4700000000003,4418.64,3574.08
5.0859375,4490.04,4696.59,4131.51,4197.81,4403.34,4706.28,4647.12,3804.6,4436.49,4527.78,3934.65,3973.92,4419.66,3569.4900000000002
5.09375,4491.06,4696.08,4127.43,4197.3,4404.87,4707.81,4645.08,3804.09,4435.9800000000005,4526.25,3933.63,3971.37,4418.64,3567.96
5.1015625,4491.06,4701.18,4125.9,4198.32,4407.42,4707.3,4642.02,3802.56,4435.47,4528.8,3935.16,3972.9,4418.64,3573.06
5.109375,4488.51,4702.71,4128.45,4200.87,4408.95,4707.81,4646.61,3803.58,4434.96,4529.82,3934.14,3972.9,4418.13,3570.0
5.1171875,4488.0,4701.18,4125.9,4202.91,4407.93,4707.81,4650.18,3804.6,4432.92,4527.78,3932.1,3974.4300000000003,4417.62,3567.4500000000003
5.125,4488.0,4702.71,4120.8,4203.42,4405.38,4709.34,4646.61,3807.66,4432.41,4527.78,3931.08,3979.53,4418.13,3574.08
5.1328125,4485.96,4703.7300000000005,4123.35,4205.97,4406.4,4711.38,4644.57,3809.19,4433.9400000000005,4529.82,3930.57,3980.04,4418.64,3573.57
5.140625,4488.0,4702.2,4127.9400000000005,4205.46,4408.95,4707.81,4645.08,3805.62,4434.96,4529.31,3933.63,3977.4900000000002,4418.64,3569.4900000000002
5.1484375,4490.04,4701.6900000000005,4122.33,4205.97,4408.4400000000005,4706.28,4647.63,3802.05,4437.0,4527.78,3932.61,3977.4900000000002,4417.11,3570.51
5.15625,4487.49,4702.71,4121.82,4206.99,4404.36,4707.81,4647.63,3802.56,4437.0,4528.8,3928.53,3975.96,4417.11,3572.04
5.1640625,4487.49,4702.2,4127.9400000000005,4201.89,4402.32,4707.3,4646.1,3802.05,4436.49,4529.31,3929.55,3971.88,4419.15,3570.51
5.171875,4492.08,4699.14,4127.9400000000005,4202.91,4406.4,4708.32,4646.61,3800.01,4435.47,4528.29,3930.57,3970.86,4419.66,3569.4900000000002
5.1796875,4494.12,4696.59,4127.43,4205.97,4408.95,4707.3,4645.59,3800.52,4435.9800000000005,4527.78,3932.61,3970.86,4419.15,3572.04
5.1875,4491.57,4700.16,4126.92,4203.93,4407.42,4705.26,4645.59,3802.56,4434.96,4529.31,3933.63,3968.82,4418.64,3574.59
5.1953125,4490.04,4703.7300000000005,4126.92,4205.46,4406.91,4707.3,4646.1,3802.56,4435.47,4528.8,3931.59,3969.33,4418.64,3573.06
5.203125,4490.04,4703.7300000000005,4128.45,4205.97,4408.95,4707.3,4646.1,3803.07,4437.51,4528.8,3932.1,3972.39,4418.13,3568.98
5.2109375,4489.02,4704.24,4128.96,4203.42,4409.46,4705.26,4646.61,3803.07,4433.9400000000005,4528.8,3934.65,3973.92,4418.13,3568.4700000000003
5.21875,4488.51,4703.22,4125.39,4206.99,4405.89,4706.28,4646.61,3803.07,4431.39,4526.76,3934.65,3971.88,4419.15,3571.02
5.2265625,4488.51,4700.67,4121.82,4208.52,4405.89,4708.32,4646.1,3808.6800000000003,4432.92,4526.76,3932.61,3972.9,4420.68,3571.53
5.234375,4489.02,4699.65,4124.37,4207.5,4409.46,4705.77,4645.08,3810.21,4437.51,4529.31,3932.1,3975.96,4420.17,3572.04
5.2421875,4490.55,4699.14,4126.92,4209.03,4408.95,4704.75,4644.06,3807.15,4439.55,4529.82,3933.12,3973.41,4418.64,3573.06
5.25,4489.02,4700.67,4122.84,4214.13,4407.42,4707.81,4645.08,3806.13,4436.49,4527.78,3930.57,3972.9,4416.6,3570.51
5.2578125,4488.51,4698.63,4123.86,4214.64,4408.4400000000005,4707.81,4646.1,3806.13,4435.47,4529.31,3930.57,3976.98,4418.13,3569.4900000000002
5.265625,4491.57,4695.57,4127.9400000000005,4208.52,4410.4800000000005,4706.28,4645.08,3804.6,4437.51,4530.84,3932.61,3975.96,4419.66,3570.51
5.2734375,4491.57,4699.65,4125.9,4205.97,4409.97,4707.81,4643.55,3803.58,4437.51,4528.29,3931.59,3973.41,4416.6,3571.02
5.28125,4488.0,4701.18,4125.39,4203.93,4408.4400000000005,4707.81,4643.55,3805.11,4433.9400000000005,4528.29,3933.12,3975.96,4417.62,3571.53
5.2890625,4487.49,4698.63,4129.47,4201.89,4408.4400000000005,4706.79,4645.59,3804.09,4433.43,4528.29,3933.63,3974.94,4419.66,3568.98
5.296875,4489.53,4698.12,4128.96,4204.4400000000005,4407.93,4706.28,4644.57,3803.07,4437.51,4526.76,3931.08,3975.4500000000003,4418.64,3569.4900000000002
5.3046875,4489.53,4699.65,4124.37,4205.46,4407.93,4704.75,4641.51,3804.09,4435.9800000000005,4528.8,3933.12,3977.4900000000002,4420.17,3572.55
5.3125,4489.53,4700.67,4124.88,4205.97,4409.46,4705.77,4643.04,3805.11,4431.9,4528.8,3934.14,3974.94,4420.17,3570.51
5.3203125,4493.1,4700.16,4123.86,4209.54,4406.4,4706.28,4645.08,3806.64,4434.96,4526.76,3931.08,3976.4700000000003,4420.17,3568.4700000000003
5.328125,4493.1,4699.65,4121.31,4212.09,4403.85,4704.75,4646.61,3807.15,4438.02,4527.27,3928.53,3982.08,4421.1900000000005,3571.02
5.3359375,4490.55,4701.6900000000005,4123.86,4207.5,4405.89,4704.24,4647.12,3806.13,4433.43,4527.78,3932.1,3980.04,4422.21,3571.53
5.34375,4493.1,4700.16,4124.88,4203.42,4406.4,4705.77,4644.57,3804.6,4433.9400000000005,4525.2300000000005,3932.61,3973.41,4421.1900000000005,3569.4900000000002
5.3515625,4493.1,4697.61,4124.37,4207.5,4406.4,4707.81,4645.08,3803.58,4437.51,4527.78,3929.55,3975.96,4419.15,3570.51
5.359375,4490.55,4699.65,4128.45,4202.4,4408.4400000000005,4708.32,4645.59,3802.56,4437.51,4530.33,3932.1,3974.4300000000003,4418.64,3570.51
5.3671875,4492.08,4697.1,4129.47,4197.3,4408.4400000000005,4708.32,4646.61,3802.05,4435.9800000000005,4528.29,3933.12,3964.23,4418.64,3570.51
5.375,4492.59,4695.06,4125.9,4203.93,4407.42,4706.79,4647.63,3803.58,4434.96,4528.29,3932.1,3967.29,4417.62,3571.53
5.3828125,4490.04,4699.14,4125.9,4202.4,4407.42,4703.22,4646.61,3804.6,4433.9400000000005,4529.31,3932.61,3976.4700000000003,4417.11,3573.06
5.390625,4488.51,4703.22,4125.9,4201.38,4409.46,4706.79,4646.1,3803.58,4434.96,4528.8,3931.08,3974.4300000000003,4416.6,3572.04
5.3984375,4491.06,4703.7300000000005,4125.9,4205.97,4408.95,4708.83,4646.1,3804.09,4437.0,4529.31,3931.59,3975.4500000000003,4417.11,3571.53
5.40625,4491.57,4703.22,4124.88,4206.4800000000005,4406.4,4704.75,4645.59,3807.66,4434.96,4530.33,3932.61,3980.04,4417.62,3570.51
5.4140625,4488.51,4703.22,4124.88,4208.52,4404.36,4705.26,4645.08,3806.13,4433.9400000000005,4527.27,3930.57,3977.4900000000002,4417.62,3567.4500000000003
5.421875,4489.02,4702.2,4126.41,4212.6,4403.85,4708.83,4646.1,3803.07,4435.9800000000005,4525.74,3929.04,3976.98,4418.64,3569.4900000000002
5.4296875,4492.59,4703.22,4126.41,4211.58,4406.4,4709.85,4646.1,3805.11,4436.49,4526.76,3929.55,3979.53,4420.17,3572.55
5.4375,4493.61,4702.2,4125.39,4206.4800000000005,4408.4400000000005,4707.81,4644.06,3804.09,4435.47,4527.78,3930.06,3972.9,4421.1900000000005,3571.02
5.4453125,4492.59,4699.65,4125.39,4205.97,4407.42,4705.26,4642.53,3801.03,4437.0,4528.29,3930.06,3968.31,4418.64,3568.98
5.453125,4491.06,4700.16,4127.43,4210.05,4405.89,4705.26,4644.57,3800.52,4435.9800000000005,4525.74,3930.06,3973.41,4416.09,3569.4900000000002
5.4609375,4491.06,4701.18,4129.9800000000005,4204.95,4406.91,4706.28,4646.1,3801.54,4434.45,4525.2300000000005,3931.59,3973.41,4419.15,3572.55
5.46875,4490.04,4700.67,4128.96,4201.38,4408.4400000000005,4707.81,4646.1,3803.07,4435.9800000000005,4526.76,3931.59,3967.8,4420.17,3571.02
5.4765625,4489.02,4700.67,4126.92,4206.99,4408.4400000000005,4708.32,4645.08,3805.11,4435.47,4529.82,3932.1,3971.37,4418.13,3568.4700000000003
5.484375,4488.51,4702.2,4127.43,4204.95,4407.93,4706.28,4646.1,3804.09,4434.96,4530.33,3931.59,3977.4900000000002,4419.15,3571.02
5.4921875,4486.9800000000005,4703.7300000000005,4127.43,4201.38,4406.91,4707.3,4651.2,3803.58,4437.51,4527.78,3930.06,3975.96,4419.15,3572.04
5.5,4485.96,4702.71,4124.37,4205.97,4406.4,4707.81,4648.14,3805.11,4435.9800000000005,4527.78,3932.1,3973.92,4418.64,3571.53
5.5078125,4490.04,4701.6900000000005,4122.84,4206.99,4407.42,4705.77,4644.06,3805.62,4434.45,4531.35,3933.63,3975.96,4419.15,3573.57
5.515625,4491.57,4702.2,4125.39,4207.5,4406.4,4705.77,4646.61,3806.13,4436.49,4530.33,3933.12,3974.94,4418.13,3572.04
5.5234375,4489.02,4702.2,4123.35,4210.56,4404.87,4706.28,4648.65,3807.15,4437.51,4526.25,3933.12,3974.94,4418.64,3569.4900000000002
5.53125,4489.53,4701.18,4118.25,4214.13,4403.85,4705.26,4649.16,3804.6,4434.96,4528.8,3932.1,3978.0,4419.15,3572.55
5.5390625,4492.59,4700.16,4123.35,4214.13,4402.32,4705.77,4648.14,3802.56,4436.49,4532.88,3932.61,3975.4500000000003,4417.62,3572.04
5.546875,4492.08,4700.16,4127.9400000000005,4212.6,4405.38,4706.79,4646.61,3804.6,4439.04,4529.82,3934.14,3971.88,4417.62,3568.4700000000003
5.5546875,4491.57,4703.22,4125.39,4211.58,4408.4400000000005,4709.34,4646.61,3806.13,4437.0,4524.72,3935.67,3973.92,4418.64,3571.02
5.5625,4492.08,4702.2,4127.43,4206.99,4404.87,4708.83,4647.63,3805.11,4436.49,4525.2300000000005,3934.65,3973.41,4418.64,3574.59
5.5703125,4491.57,4699.14,4130.49,4205.97,4404.87,4705.26,4645.59,3803.07,4439.04,4528.8,3931.08,3970.86,4419.66,3571.02
5.578125,4489.53,4698.63,4126.92,4203.42,4408.4400000000005,4705.26,4642.02,3801.54,4437.51,4528.29,3931.59,3973.41,4421.7,3568.4700000000003
5.5859375,4490.04,4696.59,4126.41,4198.83,4406.91,4709.85,4643.55,3801.54,4435.9800000000005,4528.29,3934.14,3971.88,4420.17,3571.02
5.59375,4490.55,4697.1,4127.9400000000005,4202.91,4403.85,4709.34,4645.59,3803.58,4438.02,4528.29,3933.12,3969.33,4418.64,3570.51
5.6015625,4487.49,4700.16,4124.37,4207.5,4404.87,4706.79,4643.04,3805.11,4438.53,4529.31,3930.57,3976.98,4421.7,3568.98
5.609375,4489.02,4705.26,4122.84,4205.97,4408.4400000000005,4708.32,4645.59,3803.58,4434.96,4529.82,3930.57,3979.02,4420.68,3570.0
5.6171875,4491.57,4703.22,4125.9,4209.03,4403.85,4704.24,4645.08,3809.7000000000003,4435.47,4527.27,3935.16,3977.4900000000002,4420.68,3573.57
5.625,4488.51,4703.22,4125.39,4208.01,4405.89,4705.77,4646.61,3805.62,4435.9800000000005,4529.82,3932.1,3982.08,4419.66,3568.4700000000003
5.6328125,4491.57,4704.75,4128.45,4203.93,4407.93,4706.79,4650.18,3802.56,4434.96,4529.82,3931.59,3977.4900000000002,4418.13,3570.0
5.640625,4491.57,4702.71,4125.9,4206.99,4407.42,4707.81,4648.65,3806.13,4434.45,4527.78,3931.59,3972.39,4417.62,3573.06
5.6484375,4488.51,4699.65,4124.37,4207.5,4407.93,4708.83,4645.59,3805.11,4436.49,4527.27,3931.59,3974.4300000000003,4418.13,3571.02
5.65625,4490.04,4697.61,4126.92,4200.36,4407.42,4707.81,4645.08,3800.52,4439.04,4528.29,3934.65,3974.4300000000003,4418.64,3571.02
5.6640625,4492.59,4698.12,4124.88,4202.91,4405.38,4707.81,4646.61,3801.54,4438.53,4530.33,3932.61,3973.92,4417.11,3571.02
5.671875,4490.04,4699.14,4123.35,4205.46,4405.89,4707.3,4645.08,3803.07,4436.49,4531.35,3930.57,3974.94,4417.11,3571.53
5.6796875,4487.49,4701.6900000000005,4125.39,4199.34,4406.91,4707.3,4644.57,3802.05,4436.49,4529.31,3930.57,3974.4300000000003,4419.66,3573.06
5.6875,4489.02,4702.71,4126.41,4202.4,4408.4400000000005,4707.3,4646.61,3800.52,4436.49,4528.29,3930.06,3978.0,4420.17,3574.59
5.6953125,4491.06,4703.7300000000005,4123.35,4204.4400000000005,4408.95,4704.24,4647.12,3804.6,4434.96,4527.78,3931.59,3980.04,4418.64,3572.55
5.703125,4487.49,4702.71,4123.86,4202.4,4404.87,4704.24,4647.12,3809.19,4433.43,4530.33,3930.57,3973.92,4419.15,3570.0
5.7109375,4485.45,4701.18,4125.9,4206.4800000000005,4403.85,4705.77,4647.63,3806.13,4435.9800000000005,4531.35,3927.51,3969.84,4419.66,3571.02
5.71875,4490.55,4702.2,4123.86,4210.05,4407.42,4705.77,4648.65,3805.11,4439.04,4527.27,3928.53,3974.4300000000003,4420.68,3571.02
5.7265625,4493.1,4701.18,4122.84,4209.03,4407.93,4708.32,4647.12,3806.13,4439.04,4526.25,3933.12,3975.96,4421.1900000000005,3568.4700000000003
5.734375,4490.04,4697.1,4125.39,4208.52,4404.87,4710.36,4646.1,3805.11,4437.51,4529.82,3935.16,3970.35,4419.15,3568.98
5.7421875,4488.51,4700.16,4125.39,4211.58,4405.89,4709.34,4647.12,3804.6,4436.49,4529.31,3931.59,3970.35,4416.09,3569.4900000000002
5.75,4490.04,4703.22,4125.9,4206.99,4406.91,4709.85,4644.57,3805.11,4437.0,4526.76,3930.57,3974.4300000000003,4418.13,3571.02
5.7578125,4492.08,4698.63,4125.9,4200.36,4404.87,4710.36,4643.04,3803.07,4437.51,4527.27,3932.1,3970.35,4420.17,3572.04
5.765625,4491.06,4697.1,4124.37,4203.42,4406.91,4708.32,4645.08,3801.03,4437.51,4527.78,3931.08,3969.84,4418.13,3571.02
5.7734375,4488.51,4701.18,4125.9,4203.42,4408.4400000000005,4707.3,4647.63,3804.6,4437.51,4528.29,3931.08,3973.41,4418.64,3572.55
5.78125,4489.02,4702.2,4128.45,4201.38,4408.95,4708.32,4649.16,3805.62,4435.9800000000005,4527.78,3933.12,3970.86,4419.15,3573.57
5.7890625,4490.04,4700.16,4126.41,4203.93,4408.4400000000005,4706.79,4648.14,3805.62,4435.9800000000005,4527.78,3934.65,3975.96,4416.6,3571.53
5.796875,4487.49,4699.14,4123.35,4207.5,4407.42,4705.77,4644.57,3807.15,4437.0,4529.82,3933.12,3981.06,4419.15,3572.55
5.8046875,4486.47,4701.18,4122.84,4210.56,4406.91,4708.83,4646.61,3808.17,4434.96,4529.31,3930.06,3974.4300000000003,4421.7,3573.57
5.8125,4492.08,4703.22,4123.35,4211.07,4406.91,4708.83,4645.59,3808.6800000000003,4435.9800000000005,4526.25,3933.12,3974.4300000000003,4419.66,3570.51
5.8203125,4493.61,4701.18,4122.84,4211.58,4407.42,4706.28,4643.04,3808.17,4438.53,4527.27,3934.14,3980.55,4417.62,3570.0
5.828125,4490.55,4699.14,4123.35,4210.05,4406.91,4707.81,4645.59,3805.62,4436.49,4529.31,3930.57,3976.4700000000003,4419.66,3571.53
5.8359375,4492.59,4699.14,4125.39,4205.97,4406.91,4707.81,4646.1,3804.09,4436.49,4528.29,3931.59,3970.35,4420.68,3570.0
5.84375,4493.1,4698.12,4125.9,4205.46,4408.95,4704.75,4645.59,3806.13,4438.02,4528.8,3933.12,3970.86,4418.13,3570.0
5.8515625,4489.53,4698.63,4126.41,4200.87,4405.89,4703.22,4645.08,3804.09,4437.0,4530.33,3931.59,3971.37,4417.11,3572.55
5.859375,4488.0,4700.16,4127.43,4198.83,4403.85,4705.77,4644.06,3801.03,4437.51,4528.29,3931.08,3970.35,4419.15,3571.53
5.8671875,4489.02,4701.18,4126.41,4205.46,4408.4400000000005,4707.3,4645.08,3804.09,4437.0,4527.78,3931.59,3971.88,4422.21,3570.51
5.875,4490.55,4701.18,4126.41,4204.95,4408.95,4707.3,4647.12,3805.62,4435.47,4529.82,3931.59,3976.4700000000003,4419.66,3572.55
5.8828125,4490.04,4702.71,4127.9400000000005,4202.91,4405.89,4709.34,4646.1,3804.6,4435.47,4527.27,3931.59,3977.4900000000002,4415.58,3571.53
5.890625,4490.04,4704.24,4126.92,4206.99,4407.93,4708.32,4644.57,3804.6,4437.0,4525.74,3932.61,3975.96,4417.62,3572.55
5.8984375,4491.06,4703.22,4122.33,4209.54,4409.46,4707.81,4646.61,3807.15,4437.51,4526.76,3931.59,3978.51,4420.68,3574.08
5.90625,4489.53,4701.6900000000005,4123.86,4209.03,4406.4,4710.36,4645.59,3806.13,4437.0,4525.74,3931.08,3978.51,4419.66,3569.4900000000002
5.9140625,4488.51,4700.16,4126.92,4207.5,4405.38,4707.3,4641.51,3803.58,4436.49,4526.25,3932.61,3976.4700000000003,4417.62,3570.0
5.921875,4490.04,4701.18,4126.41,4207.5,4407.42,4704.24,4644.06,3803.07,4437.0,4528.29,3932.1,3976.4700000000003,4417.62,3573.06
5.9296875,4490.55,4700.67,4129.47,4208.01,4408.4400000000005,4706.79,4646.61,3801.54,4439.04,4528.29,3931.08,3973.92,4417.11,3570.51
5.9375,4492.08,4698.63,4131.0,4204.95,4405.89,4706.28,4645.08,3802.05,4439.55,4526.76,3932.61,3970.35,4417.62,3568.98
5.9453125,4490.04,4699.65,4126.41,4206.4800000000005,4406.4,4704.75,4647.12,3804.6,4438.02,4527.27,3932.1,3973.41,4418.64,3571.02
5.953125,4486.47,4700.67,4125.9,4205.97,4409.46,4706.28,4646.1,3803.07,4437.51,4529.31,3930.06,3974.4300000000003,4420.17,3572.04
5.9609375,4488.0,4703.22,4127.9400000000005,4202.4,4408.4400000000005,4708.32,4644.57,3801.03,4438.53,4529.82,3930.06,3973.41,4419.66,3570.51
5.96875,4489.02,4702.71,4126.41,4206.4800000000005,4404.36,4708.32,4647.12,3804.6,4437.51,4528.29,3932.1,3976.98,4419.66,3569.4900000000002
5.9765625,4486.9800000000005,4699.65,4125.39,4209.03,4405.89,4707.3,4646.61,3807.66,4434.45,4526.76,3932.1,3974.94,4420.68,3570.51
5.984375,4487.49,4701.18,4126.41,4204.95,4407.93,4709.34,4646.1,3806.13,4434.96,4528.8,3931.59,3970.86,4417.62,3573.57
5.9921875,4490.04,4702.71,4125.9,4205.97,4404.87,4706.79,4646.1,3805.62,4437.51,4531.86,3931.08,3974.94,4418.64,3572.55
6.0,4490.55,4702.2,4123.86,4209.54,4404.36,4704.75,4646.1,3805.62,4435.47,4528.29,3930.57,3978.51,4421.1900000000005,3570.0
6.0078125,4492.59,4701.18,4124.88,4206.99,4405.89,4708.83,4646.1,3806.13,4433.43,4526.25,3932.61,3977.4900000000002,4416.6,3569.4900000000002
6.015625,4492.59,4701.18,4127.43,4205.46,4405.38,4709.34,4646.61,3806.64,4436.49,4529.82,3933.12,3972.9,4417.62,3571.02
6.0234375,4491.06,4701.6900000000005,4126.92,4210.05,4406.91,4706.79,4646.1,3805.62,4437.51,4529.82,3932.61,3970.35,4421.7,3572.04
6.03125,4491.06,4700.67,4123.86,4203.42,4407.93,4707.81,4644.06,3805.11,4434.45,4526.76,3933.12,3972.39,4420.17,3570.51
6.0390625,4491.06,4700.16,4125.9,4198.83,4408.4400000000005,4707.81,4643.55,3804.09,4434.45,4526.76,3931.59,3970.35,4417.11,3570.51
6.046875,4491.06,4702.2,4128.96,4204.4400000000005,4407.93,4704.75,4646.1,3803.58,4436.49,4527.78,3931.59,3970.86,4420.17,3573.06
6.0546875,4489.53,4703.7300000000005,4126.41,4201.89,4406.4,4707.3,4647.63,3807.15,4436.49,4527.78,3936.1800000000003,3974.94,4422.21,3573.57
6.0625,4488.0,4701.6900000000005,4124.37,4200.87,4408.4400000000005,4710.87,4645.59,3807.15,4434.96,4528.29,3935.67,3972.39,4419.66,3571.53
6.0703125,4490.55,4700.16,4126.92,4207.5,4408.4400000000005,4706.79,4643.55,3803.58,4434.45,4528.29,3933.12,3971.37,4419.66,3570.51
6.078125,4491.57,4701.18,4124.88,4208.52,4405.89,4704.24,4644.57,3806.64,4437.0,4528.8,3932.61,3976.4700000000003,4421.7,3572.55
6.0859375,4490.04,4702.2,4123.86,4206.99,4405.38,4706.79,4647.63,3805.62,4438.53,4527.27,3931.08,3975.96,4419.66,3572.55
6.09375,4490.55,4700.16,4125.39,4209.03,4406.4,4709.34,4646.61,3804.09,4437.51,4526.25,3932.61,3973.41,4418.13,3570.51
6.1015625,4491.06,4701.6900000000005,4120.8,4209.03,4406.4,4711.38,4646.61,3806.64,4437.0,4526.25,3933.63,3976.98,4418.64,3568.4700000000003
6.109375,4489.02,4700.16,4121.82,4206.99,4404.36,4708.83,4647.63,3804.6,4438.53,4525.2300000000005,3933.12,3975.96,4420.17,3570.0
6.1171875,4491.06,4694.55,4125.39,4203.42,4403.85,4706.28,4648.14,3801.54,4439.55,4526.25,3933.12,3971.37,4418.13,3573.06
6.125,4493.1,4698.12,4125.9,4202.91,4406.4,4708.83,4648.65,3803.07,4437.51,4530.33,3934.14,3970.35,4419.15,3571.02
6.1328125,4491.06,4702.2,4128.45,4199.85,4406.4,4709.34,4644.57,3804.09,4436.49,4530.33,3935.67,3968.31,4422.21,3571.02
6.140625,4488.0,4700.16,4128.45,4196.79,4404.36,4707.81,4644.57,3801.54,4436.49,4527.27,3934.65,3966.78,4420.17,3572.04
6.1484375,4486.9800000000005,4700.67,4126.92,4205.46,4405.38,4707.3,4647.12,3800.01,4435.9800000000005,4527.78,3933.63,3971.37,4416.6,3572.55
6.15625,4488.51,4703.7300000000005,4124.88,4209.03,4406.4,4705.77,4645.59,3803.58,4435.47,4529.31,3935.67,3974.94,4418.64,3573.57
6.1640625,4488.51,4705.26,4122.84,4206.99,4404.87,4707.3,4645.59,3805.11,4435.9800000000005,4529.31,3934.14,3974.94,4419.15,3572.55
6.171875,4486.9800000000005,4701.6900000000005,4122.84,4210.56,4406.91,4707.3,4646.61,3806.13,4436.49,4528.8,3931.08,3977.4900000000002,4417.62,3571.02
6.1796875,4489.53,4700.67,4123.86,4213.62,4409.97,4705.77,4647.12,3807.66,4435.47,4529.82,3930.06,3978.0,4418.64,3572.04
6.1875,4490.04,4702.2,4123.86,4211.07,4407.42,4706.79,4646.61,3807.15,4435.47,4530.33,3930.57,3975.4500000000003,4420.68,3572.55
6.1953125,4488.51,4699.14,4124.88,4205.97,4403.85,4708.32,4645.08,3804.6,4436.49,4529.31,3931.59,3975.4500000000003,4420.17,3571.02
6.203125,4490.04,4698.63,4127.43,4206.4800000000005,4404.87,4707.81,4644.06,3804.6,4434.96,4527.78,3932.61,3974.4300000000003,4418.64,3567.4500000000003
6.2109375,4492.59,4700.67,4130.49,4205.46,4407.42,4706.28,4644.06,3805.62,4434.96,4528.8,3933.12,3972.9,4418.64,3570.51
6.21875,4492.08,4701.18,4129.9800000000005,4206.4800000000005,4409.46,4704.75,4646.61,3802.56,4437.51,4529.31,3931.59,3969.33,4418.13,3574.59
6.2265625,4489.02,4699.14,4126.92,4206.4800000000005,4409.97,4705.26,4645.59,3801.03,4439.04,4527.78,3933.63,3970.86,4418.13,3572.55
6.234375,4489.53,4697.61,4122.33,4197.3,4407.42,4707.81,4642.02,3807.66,4439.04,4528.29,3935.16,3972.39,4422.21,3573.06
6.2421875,4489.53,4704.75,4120.8,4208.01,4409.46,4711.89,4649.67,3809.19,4435.9800000000005,4528.8,3928.02,3972.9,4417.11,3571.53
6.25,4488.51,4707.81,4127.43,4214.64,4408.95,4709.34,4648.65,3802.56,4431.9,4528.8,3932.61,3976.98,4415.07,3569.4900000000002
6.2578125,4488.51,4700.16,4129.47,4195.77,4406.91,4705.77,4641.0,3803.07,4433.43,4529.31,3937.2000000000003,3972.39,4422.21,3570.51
6.265625,4488.51,4701.6900000000005,4125.39,4203.42,4409.97,4707.81,4645.08,3805.11,4435.9800000000005,4528.8,3929.55,3970.35,4421.1900000000005,3570.0
6.2734375,4489.02,4703.7300000000005,4124.88,4212.6,4406.4,4705.26,4644.57,3805.62,4437.0,4529.31,3932.61,3974.94,4419.66,3572.04
6.28125,4487.49,4700.67,4123.86,4203.93,4404.87,4707.3,4646.61,3807.66,4434.96,4529.31,3935.16,3972.9,4421.1900000000005,3574.08
6.2890625,4489.02,4700.16,4123.35,4206.4800000000005,4408.4400000000005,4708.32,4651.2,3807.66,4433.9400000000005,4528.8,3929.04,3975.4500000000003,4419.15,3570.51
6.296875,4493.61,4701.18,4122.84,4211.07,4406.91,4704.75,4646.61,3807.66,4436.49,4527.78,3930.57,3978.0,4417.62,3567.96
6.3046875,4489.53,4701.6900000000005,4122.84,4208.52,4407.42,4706.79,4645.08,3806.64,4437.0,4527.27,3933.63,3974.94,4419.15,3570.0
6.3125,4488.51,4699.65,4127.43,4205.97,4408.4400000000005,4706.79,4646.61,3803.58,4439.55,4526.76,3932.61,3975.4500000000003,4421.1900000000005,3573.06
6.3203125,4492.08,4700.16,4128.45,4209.54,4407.42,4705.26,4645.08,3803.07,4439.04,4526.76,3930.06,3975.96,4418.64,3572.04
6.328125,4490.55,4701.6900000000005,4126.92,4205.97,4406.91,4707.81,4644.57,3803.58,4434.96,4528.29,3932.1,3971.88,4418.13,3570.0
6.3359375,4491.06,4699.14,4129.47,4199.34,4407.93,4707.3,4646.61,3800.01,4435.9800000000005,4528.29,3935.16,3967.29,4418.13,3572.04
6.34375,4491.57,4698.63,4129.9800000000005,4202.4,4406.91,4706.79,4647.12,3801.03,4438.53,4528.29,3932.61,3968.82,4416.09,3571.02
6.3515625,4489.53,4700.67,4124.88,4202.4,4406.4,4706.79,4644.06,3806.13,4436.49,4529.31,3932.61,3974.4300000000003,4420.17,3571.53
6.359375,4489.53,4699.14,4123.86,4200.87,4407.93,4706.28,4644.06,3805.11,4432.41,4529.31,3933.12,3976.98,4422.72,3572.55
6.3671875,4489.53,4698.63,4126.92,4206.99,4406.91,4705.77,4645.08,3803.58,4433.9400000000005,4527.78,3931.08,3977.4900000000002,4418.64,3569.4900000000002
6.375,4486.47,4702.71,4124.37,4208.01,4406.4,4705.77,4645.08,3808.17,4438.53,4528.29,3930.57,3978.51,4415.58,3570.51
6.3828125,4486.47,4705.26,4120.8,4204.95,4407.42,4707.3,4645.08,3808.17,4437.0,4528.8,3931.59,3978.51,4417.62,3571.02
6.390625,4490.04,4703.7300000000005,4124.37,4206.99,4406.4,4708.32,4644.57,3805.62,4435.47,4527.78,3932.1,3977.4900000000002,4419.66,3568.98
6.3984375,4492.08,4701.6900000000005,4126.41,4210.56,4406.91,4707.3,4647.63,3808.17,4439.04,4528.8,3931.08,3978.0,4419.66,3571.02
6.40625,4493.1,4701.6900000000005,4125.9,4210.05,4407.42,4708.32,4649.67,3805.11,4437.0,4530.33,3931.08,3974.94,4419.66,3572.04
6.4140625,4494.12,4700.16,4128.96,4206.4800000000005,4405.38,4708.32,4644.06,3801.54,4434.96,4529.82,3934.14,3968.82,4418.64,3568.98
6.421875,4491.06,4698.12,4129.47,4208.01,4405.89,4707.81,4644.06,3804.6,4439.55,4528.29,3934.14,3969.33,4416.6,3569.4900000000002
6.4296875,4489.02,4698.12,4127.43,4206.99,4406.4,4707.81,4647.63,3804.6,4439.55,4526.25,3932.1,3972.39,4416.09,3572.55
6.4375,4490.55,4698.63,4125.39,4201.38,4403.85,4707.81,4646.61,3804.09,4435.9800000000005,4526.25,3932.61,3970.35,4417.62,3572.55
6.4453125,4490.04,4700.67,4125.39,4200.36,4404.87,4706.79,4645.08,3803.58,4434.96,4529.31,3933.63,3970.35,4418.64,3572.04
6.453125,4490.04,4702.2,4126.41,4198.32,4407.93,4706.28,4646.61,3802.05,4435.9800000000005,4530.84,3933.12,3975.4500000000003,4421.1900000000005,3574.08
6.4609375,4489.53,4701.6900000000005,4125.9,4197.81,4406.91,4708.83,4648.14,3803.07,4436.49,4529.31,3933.12,3976.4700000000003,4420.68,3570.51
6.46875,4489.02,4700.16,4122.84,4205.46,4405.38,4709.34,4645.08,3805.62,4434.96,4528.8,3934.65,3973.92,4421.1900000000005,3568.4700000000003
6.4765625,4489.02,4702.71,4120.8,4205.97,4406.91,4708.32,4644.57,3807.15,4434.96,4531.35,3933.63,3973.92,4421.7,3574.59
6.484375,4490.04,4705.26,4122.84,4204.95,4408.4400000000005,4708.32,4647.63,3807.66,4437.0,4529.31,3933.12,3976.4700000000003,4416.09,3575.61
6.4921875,4489.53,4702.2,4124.88,4210.56,4406.4,4708.83,4644.06,3807.66,4437.51,4528.29,3933.63,3977.4900000000002,4417.11,3572.55
6.5,4488.51,4701.18,4122.33,4215.15,4405.89,4707.81,4644.06,3809.19,4435.9800000000005,4529.82,3931.08,3979.02,4421.7,3571.02
6.5078125,4490.04,4702.71,4120.29,4214.13,4408.4400000000005,4706.28,4649.67,3809.7000000000003,4435.9800000000005,4527.27,3931.08,3980.55,4418.64,3570.0
6.515625,4489.53,4698.63,4121.31,4209.03,4407.93,4707.3,4647.12,3806.64,4436.49,4526.25,3932.1,3976.98,4417.62,3571.02
6.5234375,4488.0,4696.59,4122.84,4208.01,4404.87,4709.34,4643.55,3802.05,4437.0,4528.29,3929.04,3973.41,4420.68,3573.57
6.53125,4491.06,4696.59,4127.43,4208.52,4403.34,4706.79,4644.57,3802.56,4437.51,4527.78,3931.59,3974.94,4419.66,3573.06
6.5390625,4493.61,4696.08,4129.9800000000005,4205.46,4406.4,4705.77,4647.12,3804.09,4437.0,4527.78,3934.14,3971.88,4418.13,3571.53
6.546875,4491.57,4698.12,4127.43,4202.4,4410.4800000000005,4708.83,4647.63,3802.05,4438.02,4528.8,3932.1,3967.29,4419.66,3572.04
6.5546875,4491.06,4698.63,4129.47,4201.38,4407.42,4709.34,4645.08,3801.03,4438.53,4528.8,3932.1,3970.35,4420.17,3573.06
6.5625,4491.57,4699.14,4128.96,4203.42,4404.87,4708.83,4646.1,3802.05,4437.0,4528.29,3933.12,3974.4300000000003,4419.15,3571.02
6.5703125,4489.53,4699.65,4125.39,4204.95,4405.38,4708.32,4645.59,3805.11,4437.0,4528.8,3935.67,3973.92,4419.66,3570.51
6.578125,4488.51,4700.67,4124.37,4204.4400000000005,4406.4,4709.85,4643.55,3805.11,4435.9800000000005,4528.29,3936.1800000000003,3972.39,4420.68,3572.04
6.5859375,4489.02,4703.22,4123.35,4205.97,4405.89,4710.87,4643.55,3802.56,4433.9400000000005,4527.78,3931.59,3976.4700000000003,4420.68,3573.57
6.59375,4488.51,4703.22,4119.27,4207.5,4407.93,4707.3,4643.04,3805.11,4435.47,4528.8,3930.57,3980.55,4420.68,3573.06
6.6015625,4488.0,4702.71,4120.29,4208.52,4408.95,4707.3,4644.57,3806.13,4435.9800000000005,4529.31,3933.12,3978.51,4419.66,3568.98
6.609375,4490.55,4702.2,4126.92,4206.4800000000005,4406.4,4707.81,4647.63,3803.58,4435.9800000000005,4529.31,3931.59,3976.4700000000003,4417.62,3567.96
6.6171875,4489.53,4699.65,4123.86,4206.99,4409.97,4708.32,4645.08,3808.17,4437.51,4528.29,3930.57,3973.41,4418.64,3567.96
6.625,4491.06,4698.63,4126.41,4201.89,4408.4400000000005,4706.79,4646.1,3806.13,4436.49,4527.27,3932.61,3973.92,4419.66,3568.98
6.6328125,4491.57,4697.1,4123.86,4198.83,4404.87,4705.77,4648.14,3804.6,4436.49,4527.27,3933.12,3973.92,4418.64,3570.0
6.640625,4489.53,4699.65,4124.37,4202.91,4405.38,4710.87,4645.59,3803.58,4434.96,4528.8,3933.12,3970.86,4418.64,3571.02
6.6484375,4489.02,4700.67,4127.43,4200.36,4407.93,4711.89,4642.02,3803.07,4434.96,4528.8,3934.65,3970.86,4419.15,3574.08
6.65625,4489.53,4700.16,4126.92,4201.89,4409.46,4707.81,4644.06,3803.58,4436.49,4528.29,3932.1,3973.92,4417.11,3573.06
6.6640625,4488.0,4700.16,4122.84,4204.95,4407.42,4708.32,4646.61,3805.11,4435.9800000000005,4527.78,3931.59,3975.96,4419.66,3571.53
6.671875,4487.49,4702.2,4121.82,4202.91,4407.42,4709.85,4644.06,3806.13,4435.47,4528.29,3934.14,3973.92,4421.1900000000005,3572.55
6.6796875,4489.02,4705.26,4124.37,4206.99,4408.95,4705.77,4642.02,3803.58,4437.0,4529.82,3934.65,3972.9,4417.11,3574.59
6.6875,4493.1,4702.2,4122.84,4207.5,4407.93,4703.22,4644.57,3803.07,4436.49,4528.8,3934.14,3974.94,4417.11,3573.06
6.6953125,4492.08,4696.08,4120.8,4204.95,4406.91,4706.28,4649.67,3805.62,4433.9400000000005,4526.76,3933.12,3974.94,4419.66,3569.4900000000002
6.703125,4489.02,4696.08,4123.86,4206.99,4406.91,4706.79,4645.59,3803.58,4434.45,4526.76,3933.63,3971.37,4420.17,3570.51
6.7109375,4493.61,4699.65,4125.9,4210.56,4404.87,4707.3,4643.04,3802.56,4435.9800000000005,4528.29,3933.12,3970.35,4418.13,3573.57
6.71875,4494.63,4700.67,4124.88,4210.56,4406.91,4710.87,4647.63,3806.64,4434.45,4529.31,3932.61,3971.88,4417.11,3573.57
6.7265625,4486.47,4701.18,4125.9,4202.91,4408.4400000000005,4709.34,4646.1,3803.58,4434.45,4529.82,3933.12,3970.35,4419.66,3572.55
6.734375,4483.92,4701.6900000000005,4125.9,4199.85,4405.38,4706.79,4643.04,3798.9900000000002,4436.49,4528.8,3931.08,3970.86,4422.21,3573.57
6.7421875,4488.51,4701.18,4124.88,4203.93,4403.85,4706.28,4644.06,3802.05,4435.9800000000005,4529.82,3930.57,3975.96,4420.17,3571.02
6.75,4489.02,4701.6900000000005,4125.9,4203.42,4406.4,4707.3,4645.08,3805.11,4434.96,4530.84,3930.57,3973.92,4418.13,3570.0
6.7578125,4486.9800000000005,4702.2,4125.39,4203.93,4407.93,4708.32,4644.57,3806.13,4435.9800000000005,4528.8,3928.53,3971.37,4421.1900000000005,3572.55
6.765625,4490.55,4701.18,4124.37,4209.54,4406.4,4705.77,4644.57,3806.64,4435.9800000000005,4528.29,3930.06,3978.51,4421.7,3574.59
6.7734375,4493.61,4701.18,4125.39,4213.62,4405.38,4704.75,4646.1,3806.13,4433.9400000000005,4530.33,3934.14,3980.55,4418.64,3573.06
6.78125,4491.06,4701.18,4126.92,4213.11,4405.89,4707.3,4646.1,3808.6800000000003,4435.9800000000005,4528.8,3933.63,3976.98,4418.64,3571.53
6.7890625,4490.55,4701.18,4125.9,4214.13,4407.93,4706.28,4646.1,3810.21,4437.51,4526.25,3928.53,3979.02,4420.17,3572.55
6.796875,4491.57,4701.18,4124.37,4210.56,4407.93,4707.3,4645.59,3807.66,4435.9800000000005,4527.27,3928.53,3981.57,4420.17,3571.53
6.8046875,4492.59,4699.65,4125.9,4203.93,4405.89,4707.81,4646.1,3804.6,4438.02,4528.8,3934.14,3975.96,4419.15,3571.02
6.8125,4491.57,4700.16,4126.92,4205.97,4405.89,4706.28,4645.59,3805.11,4439.55,4529.31,3934.14,3971.37,4417.11,3568.98
6.8203125,4490.55,4701.18,4126.92,4204.4400000000005,4406.91,4706.79,4645.59,3804.09,4436.49,4528.29,3932.1,3973.92,4417.11,3568.98
6.828125,4491.06,4696.59,4127.9400000000005,4196.28,4405.89,4708.32,4647.63,3802.05,4438.02,4527.78,3932.1,3973.92,4418.13,3571.53
6.8359375,4490.04,4698.12,4128.45,4200.87,4405.89,4707.81,4647.12,3802.56,4437.51,4527.78,3933.12,3972.9,4416.09,3571.02
6.84375,4490.55,4702.2,4122.84,4203.42,4405.38,4706.79,4638.96,3807.66,4434.96,4528.29,3936.69,3977.4900000000002,4418.64,3573.57
6.8515625,4492.08,4701.6900000000005,4117.2300000000005,4199.34,4404.36,4708.32,4640.49,3807.66,4434.45,4528.29,3931.59,3976.98,4421.7,3574.59
6.859375,4492.08,4701.6900000000005,4125.39,4207.5,4404.87,4708.32,4647.63,3801.03,4434.45,4526.76,3929.04,3975.4500000000003,4419.66,3568.4700000000003
6.8671875,4491.06,4699.65,4133.04,4208.52,4406.4,4705.26,4643.04,3804.09,4437.0,4526.76,3935.67,3972.39,4419.66,3570.51
6.875,4490.55,4699.65,4126.92,4203.93,4408.95,4706.79,4644.57,3808.17,4437.51,4526.76,3933.12,3967.8,4418.13,3572.55
6.8828125,4491.06,4698.63,4124.37,4200.36,4407.93,4708.32,4647.12,3804.09,4435.9800000000005,4527.78,3931.08,3968.82,4419.66,3568.4700000000003
6.890625,4490.55,4698.12,4124.88,4198.83,4405.89,4705.26,4643.04,3803.07,4437.0,4529.82,3935.16,3970.35,4421.7,3571.53
6.8984375,4488.0,4702.71,4124.88,4205.97,4406.91,4705.26,4645.08,3807.15,4435.47,4527.27,3933.63,3970.86,4419.66,3573.57
6.90625,4487.49,4702.2,4125.39,4205.46,4405.89,4707.81,4646.1,3808.17,4433.9400000000005,4525.74,3931.59,3975.4500000000003,4421.1900000000005,3570.51
6.9140625,4489.02,4700.16,4126.41,4202.91,4406.4,4708.83,4646.1,3806.13,4437.0,4528.29,3933.12,3979.02,4420.68,3571.02
6.921875,4489.53,4702.71,4126.41,4208.52,4407.42,4707.81,4646.61,3804.6,4437.51,4528.29,3935.16,3977.4900000000002,4418.64,3574.08
6.9296875,4490.04,4704.24,4124.37,4210.05,4406.4,4708.83,4645.59,3808.17,4434.96,4526.76,3934.14,3976.98,4418.64,3573.06
6.9375,4492.08,4701.18,4125.39,4210.56,4408.4400000000005,4709.85,4644.06,3809.19,4434.96,4528.29,3930.06,3974.94,4418.13,3571.02
6.9453125,4492.59,4697.61,4126.92,4211.58,4409.97,4707.81,4643.04,3806.64,4437.0,4528.29,3932.1,3972.39,4418.13,3571.53
6.953125,4490.04,4700.67,4123.86,4209.54,4407.93,4710.87,4644.57,3805.11,4435.9800000000005,4524.72,3932.61,3973.92,4419.66,3570.0
6.9609375,4489.02,4703.7300000000005,4125.9,4206.4800000000005,4405.38,4712.91,4644.57,3804.09,4435.9800000000005,4527.27,3929.55,3974.4300000000003,4421.1900000000005,3572.04
6.96875,4490.04,4699.65,4129.9800000000005,4201.89,4405.89,4708.83,4644.06,3803.58,4438.02,4529.31,3928.53,3971.37,4421.1900000000005,3573.57
6.9765625,4490.04,4696.59,4127.43,4202.91,4406.91,4705.77,4646.1,3802.05,4438.02,4528.29,3931.08,3972.9,4419.66,3571.02
6.984375,4490.55,4701.6900000000005,4127.43,4203.42,4405.38,4706.28,4643.55,3803.07,4436.49,4528.8,3933.12,3975.4500000000003,4419.66,3571.02
6.9921875,4489.53,4704.75,4129.47,4202.4,4406.4,4707.3,4642.53,3803.07,4435.47,4529.31,3932.1,3973.41,4420.68,3571.02
7.0,4486.9800000000005,4699.65,4125.9,4204.95,4407.93,4705.77,4644.06,3802.05,4434.96,4527.78,3931.59,3974.4300000000003,4420.17,3568.98
7.0078125,4486.9800000000005,4698.12,4122.33,4207.5,4404.87,4705.77,4645.59,3805.11,4434.45,4528.29,3931.59,3975.4500000000003,4419.15,3570.0
7.015625,4490.04,4701.18,4121.31,4211.58,4404.36,4708.32,4647.63,3809.7000000000003,4435.9800000000005,4527.78,3930.06,3974.94,4418.13,3572.55
7.0234375,4491.06,4698.12,4121.82,4214.64,4406.91,4708.32,4646.61,3810.21,4439.04,4527.27,3932.61,3976.98,4417.62,3573.06
7.03125,4489.53,4698.63,4123.35,4211.07,4406.4,4706.79,4645.08,3806.13,4437.51,4529.82,3934.65,3978.0,4419.66,3572.04
7.0390625,4487.49,4704.24,4124.37,4207.5,4404.36,4706.79,4645.59,3802.56,4434.96,4529.31,3932.1,3977.4900000000002,4420.17,3572.55
7.046875,4487.49,4700.67,4125.9,4204.95,4405.38,4706.79,4644.57,3801.03,4436.49,4526.76,3933.12,3974.94,4419.15,3571.53
7.0546875,4489.02,4695.57,4126.92,4202.91,4406.91,4709.34,4645.59,3802.05,4438.02,4528.29,3934.14,3973.41,4420.17,3568.98
7.0625,4488.51,4696.59,4125.9,4199.34,4407.42,4708.32,4647.12,3802.56,4435.9800000000005,4529.31,3930.57,3976.4700000000003,4419.66,3571.53
7.0703125,4486.9800000000005,4698.63,4123.35,4199.34,4408.95,4706.79,4645.59,3800.52,4434.96,4529.31,3930.06,3976.4700000000003,4417.11,3572.55
7.078125,4489.02,4700.67,4123.86,4205.46,4407.93,4707.3,4644.06,3800.01,4437.0,4529.82,3932.1,3974.94,4418.64,3568.98
7.0859375,4490.04,4699.65,4125.9,4205.97,4407.93,4706.79,4646.1,3804.09,4438.02,4528.8,3932.61,3976.4700000000003,4419.15,3568.98
7.09375,4489.02,4699.65,4123.35,4203.93,4410.4800000000005,4705.26,4645.59,3804.09,4437.51,4526.25,3931.59,3978.0,4415.58,3570.51
7.1015625,4489.53,4702.71,4122.84,4206.99,4407.93,4705.26,4644.57,3804.09,4435.47,4528.8,3931.59,3979.02,4419.15,3571.02
7.109375,4489.53,4703.7300000000005,4125.39,4205.97,4404.87,4707.81,4645.08,3809.19,4435.47,4530.84,3930.57,3978.0,4423.2300000000005,3572.55
