Timestamp,F3,FC5,AF3,F7,T7,P7,O1,O2,P8,T8,F8,AF4,FC6,F4
0.0,4490.55,4700.16,4131.0,4215.66,4406.4,4705.77,4642.02,3801.54,4437.0,4524.21,3932.1,3969.33,4421.1900000000005,3570.0
0.0078125,4492.08,4698.63,4128.96,4209.54,4406.91,4706.79,4638.96,3803.58,4437.0,4525.74,3931.08,3970.86,4420.68,3566.43
0.015625,4494.12,4696.59,4132.02,4203.42,4406.91,4703.7300000000005,4636.92,3806.64,4437.0,4525.74,3932.61,3970.86,4419.15,3568.98
0.0234375,4495.14,4698.12,4131.0,4206.99,4405.38,4704.24,4640.49,3803.58,4435.47,4524.72,3933.12,3963.21,4419.15,3570.51
0.03125,4493.61,4698.63,4126.41,4208.01,4406.4,4706.28,4642.02,3800.01,4433.43,4525.74,3931.08,3964.7400000000002,4420.68,3570.0
0.0390625,4488.51,4693.53,4126.41,4207.5,4407.42,4704.75,4641.0,3802.05,4437.51,4526.76,3931.59,3975.96,4421.1900000000005,3570.0
0.046875,4489.53,4696.59,4129.9800000000005,4203.42,4405.89,4703.7300000000005,4644.57,3803.58,4437.51,4527.27,3932.1,3972.9,4420.17,3571.53
0.0546875,4492.08,4701.18,4131.51,4202.91,4406.91,4704.75,4644.57,3802.56,4431.39,4527.27,3933.63,3967.8,4420.68,3572.04
0.0625,4490.55,4698.63,4128.96,4210.05,4409.46,4705.77,4642.53,3802.05,4432.41,4524.72,3934.14,3973.41,4422.72,3571.02
0.0703125,4491.57,4699.14,4126.41,4211.07,4408.4400000000005,4705.26,4642.53,3805.62,4435.9800000000005,4525.2300000000005,3931.08,3975.96,4423.74,3572.04
0.078125,4490.55,4702.2,4125.9,4212.6,4405.89,4703.7300000000005,4642.53,3808.6800000000003,4432.41,4527.27,3931.08,3975.96,4420.68,3572.04
0.0859375,4489.02,4703.7300000000005,4127.9400000000005,4212.09,4405.38,4705.77,4642.53,3806.13,4431.39,4523.7,3931.08,3975.4500000000003,4418.64,3571.53
0.09375,4491.06,4702.71,4127.43,4203.93,4405.38,4707.3,4643.04,3802.05,4438.02,4522.17,3930.06,3974.94,4418.64,3568.98
0.1015625,4491.57,4701.18,4126.41,4202.4,4405.38,4703.7300000000005,4643.55,3803.07,4437.0,4526.76,3932.1,3975.4500000000003,4419.66,3568.4700000000003
0.109375,4489.53,4701.6900000000005,4128.45,4200.36,4406.4,4703.7300000000005,4645.08,3804.6,4431.39,4527.78,3932.61,3971.88,4420.68,3572.04
0.1171875,4488.51,4702.71,4129.9800000000005,4194.24,4406.4,4705.77,4645.08,3801.54,4432.41,4524.21,3931.59,3965.76,4419.66,3570.51
0.125,4492.08,4700.67,4127.43,4196.28,4406.91,4705.26,4644.57,3803.58,4435.9800000000005,4523.7,3933.63,3967.8,4418.13,3566.43
0.1328125,4493.1,4696.08,4126.41,4200.87,4408.4400000000005,4704.75,4646.1,3807.66,4435.9800000000005,4524.72,3934.65,3971.88,4420.68,3568.4700000000003
0.140625,4491.57,4695.06,4126.41,4199.85,4408.4400000000005,4703.7300000000005,4647.12,3805.11,4434.96,4524.21,3933.12,3968.31,4421.1900000000005,3570.0
0.1484375,4491.57,4696.59,4126.92,4203.42,4405.89,4703.22,4645.59,3803.58,4434.45,4522.68,3932.61,3968.82,4420.17,3567.96
0.15625,4491.06,4695.57,4126.92,4207.5,4405.38,4703.7300000000005,4643.04,3805.11,4434.45,4523.7,3931.59,3973.92,4421.1900000000005,3567.4500000000003
0.1640625,4489.53,4693.53,4125.39,4205.46,4406.4,4705.77,4644.06,3806.64,4433.9400000000005,4525.2300000000005,3933.63,3975.4500000000003,4420.68,3567.96
0.171875,4491.57,4697.1,4125.39,4202.4,4406.91,4707.81,4644.57,3808.17,4432.92,4523.7,3935.16,3975.96,4421.7,3572.55
0.1796875,4493.61,4702.2,4124.88,4203.42,4407.93,4706.28,4642.53,3806.13,4433.43,4522.17,3931.08,3975.4500000000003,4421.7,3574.08
0.1875,4490.55,4701.6900000000005,4124.37,4204.95,4409.46,4704.24,4643.04,3804.6,4434.45,4524.72,3931.59,3974.94,4419.66,3570.51
0.1953125,4491.57,4701.18,4123.86,4205.46,4407.93,4706.28,4645.59,3807.15,4433.9400000000005,4526.25,3935.67,3973.92,4419.15,3570.51
0.203125,4492.59,4702.71,4126.41,4203.93,4406.4,4708.32,4644.06,3807.15,4433.43,4525.2300000000005,3934.14,3972.9,4418.64,3571.02
0.2109375,4489.02,4701.18,4125.9,4202.91,4405.38,4705.26,4639.9800000000005,3804.6,4434.45,4526.76,3932.1,3972.39,4419.66,3569.4900000000002
0.21875,4489.53,4702.2,4121.31,4203.93,4405.89,4704.24,4644.06,3806.13,4434.45,4527.27,3934.14,3973.92,4421.7,3570.51
0.2265625,4488.0,4699.65,4124.37,4205.46,4406.91,4705.26,4646.1,3808.17,4433.9400000000005,4526.25,3936.1800000000003,3978.0,4420.68,3570.51
0.234375,4490.04,4698.12,4127.43,4198.32,4405.89,4705.26,4643.04,3807.15,4435.47,4526.25,3933.63,3975.96,4420.17,3570.0
0.2421875,4492.59,4701.6900000000005,4126.41,4196.28,4405.89,4705.26,4643.55,3804.09,4435.9800000000005,4526.25,3929.55,3969.84,4420.68,3570.51
0.25,4489.02,4697.1,4127.9400000000005,4203.93,4406.91,4704.75,4645.08,3802.05,4436.49,4524.21,3929.55,3969.33,4418.64,3571.02
0.2578125,4488.51,4692.0,4130.49,4203.42,4406.4,4705.26,4647.12,3804.6,4438.53,4522.68,3931.08,3971.37,4418.13,3573.57
0.265625,4488.51,4695.57,4129.47,4202.4,4404.87,4704.24,4645.59,3804.6,4438.02,4523.7,3932.1,3973.41,4419.66,3573.06
0.2734375,4488.51,4696.08,4124.88,4209.54,4406.4,4703.22,4644.57,3803.58,4436.49,4525.2300000000005,3933.63,3976.4700000000003,4420.17,3571.02
0.28125,4492.08,4693.53,4122.84,4211.07,4406.91,4706.28,4646.61,3806.13,4434.96,4525.2300000000005,3934.65,3980.04,4421.7,3572.55
0.2890625,4492.08,4694.55,4122.84,4208.01,4404.87,4705.77,4645.08,3809.7000000000003,4434.96,4524.21,3935.16,3981.57,4422.72,3572.04
0.296875,4488.0,4700.16,4122.33,4208.52,4405.38,4703.7300000000005,4643.55,3809.19,4436.49,4525.74,3930.57,3978.0,4422.21,3568.4700000000003
0.3046875,4486.9800000000005,4702.71,4121.82,4210.05,4407.42,4706.28,4643.04,3807.15,4435.47,4527.27,3929.04,3975.96,4421.7,3567.4500000000003
0.3125,4486.47,4700.16,4124.37,4208.52,4407.93,4706.28,4644.57,3809.19,4434.45,4526.76,3935.67,3979.02,4421.7,3570.51
0.3203125,4485.96,4701.18,4125.9,4205.46,4406.4,4704.24,4646.61,3806.64,4437.0,4525.74,3934.65,3975.4500000000003,4421.1900000000005,3571.53
0.328125,4485.45,4701.6900000000005,4125.39,4200.87,4406.91,4704.75,4645.08,3800.01,4437.0,4526.76,3931.08,3968.82,4421.1900000000005,3571.02
0.3359375,4485.45,4697.61,4125.9,4203.93,4406.4,4705.77,4641.51,3800.01,4434.45,4524.72,3934.14,3970.35,4420.17,3568.4700000000003
0.34375,4490.04,4695.57,4128.96,4208.01,4405.38,4705.77,4643.04,3802.56,4436.49,4523.7,3933.12,3970.35,4419.15,3566.94
0.3515625,4491.57,4698.12,4130.49,4204.4400000000005,4406.91,4706.28,4645.59,3801.54,4438.02,4525.74,3929.55,3967.8,4422.21,3567.96
0.359375,4486.47,4699.14,4129.47,4208.52,4408.4400000000005,4705.77,4644.57,3802.56,4435.9800000000005,4524.21,3931.59,3969.33,4422.72,3568.98
0.3671875,4491.06,4698.63,4127.9400000000005,4212.09,4406.4,4703.22,4643.04,3802.56,4434.45,4522.17,3931.59,3969.33,4419.15,3570.51
0.375,4497.6900000000005,4698.12,4125.9,4203.93,4404.36,4702.71,4642.02,3801.54,4433.9400000000005,4523.7,3932.1,3971.37,4417.62,3570.0
0.3828125,4493.1,4697.61,4125.9,4202.91,4407.42,4704.75,4640.49,3804.6,4433.9400000000005,4523.1900000000005,3933.12,3974.4300000000003,4419.15,3568.98
0.390625,4491.57,4699.65,4127.9400000000005,4204.95,4406.91,4704.75,4642.53,3805.11,4433.9400000000005,4524.21,3931.59,3971.37,4421.7,3570.51
0.3984375,4493.1,4700.67,4125.39,4202.91,4404.36,4702.2,4644.57,3801.54,4433.43,4526.76,3931.59,3970.35,4420.68,3569.4900000000002
0.40625,4492.08,4702.2,4123.35,4205.46,4403.85,4702.71,4643.55,3802.05,4434.96,4524.21,3932.61,3973.92,4421.1900000000005,3568.4700000000003
0.4140625,4488.0,4702.2,4124.88,4210.56,4405.89,4705.26,4642.02,3805.11,4438.53,4523.1900000000005,3934.14,3974.4300000000003,4423.2300000000005,3571.02
0.421875,4486.9800000000005,4699.65,4125.39,4210.05,4408.95,4704.24,4643.55,3806.13,4434.45,4526.25,3932.1,3972.9,4421.1900000000005,3571.02
0.4296875,4492.08,4699.65,4125.39,4205.46,4406.4,4703.22,4642.53,3805.62,4429.35,4524.72,3928.53,3972.9,4419.66,3569.4900000000002
0.4375,4490.04,4699.65,4124.88,4206.99,4403.34,4705.77,4643.04,3804.09,4432.41,4523.7,3929.04,3972.9,4419.15,3572.04
0.4453125,4485.45,4699.14,4124.37,4206.4800000000005,4407.42,4706.28,4646.1,3802.56,4434.96,4526.25,3933.12,3972.9,4418.64,3573.57
0.453125,4489.53,4699.14,4125.9,4198.83,4409.46,4703.7300000000005,4646.1,3801.54,4433.9400000000005,4523.1900000000005,3935.67,3971.37,4418.64,3571.02
0.4609375,4491.57,4699.65,4128.96,4200.36,4406.91,4705.26,4645.08,3800.01,4434.96,4521.15,3935.67,3966.78,4420.68,3569.4900000000002
0.46875,4488.51,4698.12,4128.96,4204.4400000000005,4406.4,4706.28,4644.06,3801.03,4437.0,4524.72,3935.16,3966.78,4420.68,3571.02
0.4765625,4491.57,4698.63,4128.96,4198.83,4406.91,4703.7300000000005,4643.04,3802.05,4435.9800000000005,4526.76,3933.12,3969.33,4420.17,3570.0
0.484375,4493.61,4701.6900000000005,4128.45,4201.38,4407.42,4704.75,4643.04,3801.03,4435.47,4525.74,3931.59,3969.33,4420.68,3565.41
0.4921875,4491.57,4700.16,4124.88,4210.56,4406.91,4706.79,4643.04,3804.09,4435.9800000000005,4524.21,3932.1,3969.33,4420.68,3564.9
0.5,4492.59,4699.14,4123.35,4210.05,4405.89,4705.77,4644.06,3808.6800000000003,4435.47,4523.1900000000005,3933.12,3972.39,4420.17,3567.4500000000003
0.5078125,4493.1,4700.16,4123.86,4205.97,4406.4,4703.22,4646.61,3806.64,4434.45,4524.21,3935.67,3976.4700000000003,4419.15,3571.53
0.515625,4492.08,4700.67,4123.35,4203.93,4407.93,4703.7300000000005,4645.59,3806.64,4433.9400000000005,4524.21,3932.61,3976.98,4419.15,3573.57
0.5234375,4490.55,4701.18,4123.86,4204.4400000000005,4406.91,4704.24,4642.02,3807.15,4434.45,4522.17,3932.61,3976.4700000000003,4421.1900000000005,3570.0
0.53125,4490.55,4702.2,4124.88,4204.95,4406.4,4703.22,4642.02,3806.13,4433.9400000000005,4526.25,3936.69,3978.51,4422.21,3569.4900000000002
0.5390625,4491.06,4702.2,4125.9,4202.91,4407.93,4706.79,4646.1,3808.17,4432.92,4528.8,3932.1,3978.0,4418.64,3574.08
0.546875,4487.49,4700.16,4126.92,4200.87,4407.93,4706.79,4643.04,3806.13,4434.96,4523.1900000000005,3932.1,3975.96,4417.62,3574.59
0.5546875,4488.0,4702.2,4126.41,4197.81,4406.4,4703.22,4640.49,3801.54,4434.45,4521.66,3935.16,3973.41,4422.72,3573.57
0.5625,4489.53,4702.71,4123.86,4199.85,4405.89,4703.7300000000005,4645.08,3803.07,4431.9,4527.27,3934.14,3974.4300000000003,4421.7,3574.08
0.5703125,4486.9800000000005,4699.14,4122.33,4202.4,4406.91,4705.77,4643.04,3804.09,4434.96,4527.27,3935.67,3976.4700000000003,4421.1900000000005,3573.06
0.578125,4491.06,4701.6900000000005,4123.86,4199.34,4406.91,4706.28,4641.0,3802.05,4437.0,4524.21,3934.65,3973.41,4423.2300000000005,3571.53
0.5859375,4492.08,4700.67,4127.9400000000005,4200.36,4404.87,4705.77,4642.53,3803.58,4434.45,4525.2300000000005,3932.61,3971.37,4421.1900000000005,3570.0
0.59375,4487.49,4694.55,4126.41,4205.97,4405.38,4704.75,4642.53,3806.64,4436.49,4525.2300000000005,3933.63,3974.4300000000003,4419.15,3570.0
0.6015625,4489.02,4696.08,4121.82,4206.4800000000005,4406.4,4704.75,4643.04,3805.11,4439.55,4525.2300000000005,3934.14,3976.4700000000003,4418.64,3570.51
0.609375,4492.08,4698.12,4125.9,4205.97,4405.38,4704.24,4642.02,3801.54,4437.51,4526.76,3932.1,3974.4300000000003,4420.68,3568.98
0.6171875,4490.55,4697.1,4127.43,4210.05,4405.38,4704.75,4642.02,3801.54,4435.47,4525.2300000000005,3930.06,3977.4900000000002,4420.17,3569.4900000000002
0.625,4492.08,4699.65,4122.33,4208.01,4408.95,4705.77,4645.08,3805.11,4434.96,4523.7,3931.59,3980.55,4420.17,3573.06
0.6328125,4491.06,4699.65,4120.29,4205.97,4407.93,4704.24,4644.06,3807.66,4436.49,4524.21,3933.63,3978.0,4422.72,3573.06
0.640625,4488.0,4696.08,4122.33,4210.05,4403.85,4703.7300000000005,4641.0,3805.11,4436.49,4524.72,3934.14,3977.4900000000002,4421.7,3570.0
0.6484375,4489.02,4698.12,4123.35,4207.5,4405.38,4706.28,4644.06,3806.13,4432.92,4523.7,3931.08,3977.4900000000002,4420.68,3573.06
0.65625,4488.51,4699.14,4122.84,4203.42,4407.93,4704.24,4644.57,3809.19,4434.45,4523.7,3931.59,3972.9,4420.17,3574.59
0.6640625,4489.02,4697.1,4122.84,4204.4400000000005,4406.4,4702.71,4642.02,3807.15,4437.0,4524.21,3934.65,3971.37,4420.68,3570.0
0.671875,4492.59,4696.59,4123.86,4200.87,4407.42,4706.28,4643.55,3804.6,4433.9400000000005,4525.2300000000005,3935.16,3973.41,4421.1900000000005,3569.4900000000002
0.6796875,4490.55,4696.08,4126.92,4200.87,4409.97,4707.81,4644.57,3804.6,4434.45,4525.74,3935.67,3969.84,4420.68,3570.51
0.6875,4489.02,4697.1,4131.0,4202.91,4407.42,4706.28,4644.06,3803.58,4437.51,4525.74,3935.16,3967.8,4421.7,3571.02
0.6953125,4491.06,4696.59,4129.9800000000005,4201.89,4406.4,4705.26,4645.59,3803.07,4435.47,4526.25,3934.65,3973.41,4421.7,3571.02
0.703125,4492.08,4693.53,4124.88,4205.46,4408.95,4705.77,4648.65,3803.58,4434.96,4525.2300000000005,3933.12,3975.4500000000003,4420.68,3569.4900000000002
0.7109375,4490.55,4692.51,4127.43,4210.56,4407.42,4705.77,4647.63,3804.09,4439.04,4525.2300000000005,3933.12,3971.37,4420.68,3570.51
0.71875,4486.9800000000005,4694.04,4129.47,4212.09,4405.89,4705.26,4644.06,3805.62,4440.06,4525.74,3931.08,3970.86,4421.1900000000005,3570.51
0.7265625,4488.51,4697.1,4124.88,4215.66,4407.93,4703.22,4643.55,3807.15,4434.96,4524.72,3928.53,3973.41,4420.68,3570.0
0.734375,4491.06,4700.16,4124.37,4215.66,4408.95,4704.24,4645.08,3805.11,4432.92,4523.1900000000005,3930.57,3974.94,4421.7,3571.02
0.7421875,4487.49,4700.67,4127.43,4211.58,4406.4,4707.3,4645.08,3803.07,4433.9400000000005,4523.7,3933.12,3975.96,4421.1900000000005,3571.02
0.75,4484.9400000000005,4699.14,4128.45,4209.03,4405.89,4705.77,4642.53,3804.09,4433.9400000000005,4524.72,3932.61,3973.92,4419.66,3569.4900000000002
0.7578125,4488.51,4700.16,4125.9,4204.95,4407.42,4704.75,4643.55,3805.11,4432.92,4524.72,3931.59,3969.33,4420.17,3571.02
0.765625,4489.02,4700.16,4125.39,4204.4400000000005,4406.91,4704.24,4644.57,3803.58,4433.9400000000005,4524.21,3934.14,3970.86,4420.17,3572.55
0.7734375,4488.51,4700.16,4125.9,4208.52,4405.38,4703.22,4643.55,3803.58,4435.47,4525.2300000000005,3935.16,3972.9,4420.17,3572.04
0.78125,4490.55,4703.7300000000005,4126.41,4206.99,4405.38,4704.24,4644.57,3803.07,4435.9800000000005,4525.2300000000005,3933.12,3970.35,4420.17,3569.4900000000002
0.7890625,4489.02,4701.6900000000005,4128.45,4198.83,4406.91,4704.75,4643.55,3801.54,4435.47,4524.21,3933.12,3970.86,4419.66,3570.51
0.796875,4489.53,4699.14,4128.96,4196.79,4407.42,4706.28,4643.04,3802.05,4431.9,4525.74,3932.61,3971.37,4419.15,3574.59
0.8046875,4490.55,4701.6900000000005,4129.9800000000005,4203.93,4405.89,4706.79,4643.55,3800.01,4428.33,4526.76,3935.16,3970.35,4418.64,3573.57
0.8125,4491.06,4700.67,4130.49,4204.95,4405.38,4704.24,4645.08,3801.03,4430.37,4525.2300000000005,3937.2000000000003,3969.84,4419.15,3570.51
0.8203125,4491.57,4696.08,4131.0,4201.38,4407.42,4705.26,4647.12,3802.05,4433.9400000000005,4525.74,3932.61,3969.84,4420.68,3570.51
0.828125,4490.55,4694.04,4130.49,4203.42,4406.91,4706.28,4645.08,3800.01,4432.92,4527.27,3931.59,3971.37,4420.68,3570.0
0.8359375,4491.57,4696.59,4127.9400000000005,4210.56,4404.36,4704.75,4642.02,3803.58,4431.39,4525.2300000000005,3933.63,3973.41,4421.7,3567.96
0.84375,4493.61,4699.65,4123.86,4212.09,4405.89,4706.28,4642.53,3807.15,4433.9400000000005,4523.1900000000005,3932.1,3974.94,4421.7,3566.94
0.8515625,4491.57,4698.12,4122.33,4206.4800000000005,4407.42,4706.79,4645.08,3804.09,4436.49,4525.2300000000005,3932.61,3975.4500000000003,4419.66,3567.96
0.859375,4488.51,4698.12,4122.84,4207.5,4406.91,4704.24,4645.59,3804.09,4434.96,4525.74,3932.1,3976.98,4419.66,3569.4900000000002
0.8671875,4490.04,4701.18,4122.33,4209.03,4404.87,4704.75,4642.53,3809.7000000000003,4434.45,4523.7,3930.57,3978.0,4421.1900000000005,3571.02
0.875,4490.55,4700.16,4119.78,4199.85,4405.38,4705.26,4641.0,3809.7000000000003,4434.96,4523.1900000000005,3930.06,3978.0,4421.1900000000005,3568.4700000000003
0.8828125,4486.47,4697.1,4120.8,4194.24,4408.4400000000005,4702.2,4643.55,3804.09,4434.45,4524.72,3932.1,3977.4900000000002,4419.15,3568.4700000000003
0.890625,4486.47,4697.61,4124.88,4196.79,4407.42,4704.24,4644.06,3802.56,4434.45,4524.72,3934.14,3974.4300000000003,4421.1900000000005,3573.06
0.8984375,4488.51,4696.59,4125.9,4197.3,4407.42,4706.79,4641.51,3802.05,4435.47,4523.7,3934.14,3972.9,4422.21,3572.04
0.90625,4489.02,4694.55,4126.92,4196.79,4409.46,4703.7300000000005,4641.51,3801.03,4432.92,4524.72,3933.12,3974.4300000000003,4420.17,3568.98
0.9140625,4491.06,4695.57,4127.9400000000005,4199.85,4406.91,4704.24,4644.06,3803.07,4432.92,4524.72,3936.69,3973.92,4418.64,3571.53
0.921875,4491.06,4696.59,4125.39,4201.38,4405.89,4706.28,4644.57,3803.07,4434.45,4524.21,3937.2000000000003,3969.33,4419.15,3572.04
0.9296875,4489.53,4696.08,4123.35,4197.3,4406.4,4706.28,4641.51,3804.09,4435.47,4526.76,3934.65,3967.8,4419.15,3568.98
0.9375,4486.9800000000005,4696.08,4123.35,4199.34,4406.91,4706.28,4642.53,3807.66,4434.45,4527.78,3936.1800000000003,3970.86,4419.66,3568.98
0.9453125,4488.51,4699.65,4125.9,4205.97,4407.93,4704.75,4644.06,3807.15,4433.9400000000005,4525.2300000000005,3936.69,3972.39,4420.68,3570.51
0.953125,4489.53,4700.16,4125.9,4204.95,4405.38,4704.24,4642.53,3806.64,4434.96,4523.1900000000005,3933.63,3975.4500000000003,4421.1900000000005,3569.4900000000002
0.9609375,4486.9800000000005,4697.61,4124.37,4202.4,4405.89,4704.24,4644.57,3807.15,4433.9400000000005,4523.1900000000005,3933.12,3980.55,4419.66,3568.98
0.96875,4486.9800000000005,4697.1,4122.84,4202.91,4410.4800000000005,4702.2,4645.08,3805.62,4431.9,4524.72,3934.14,3978.51,4421.1900000000005,3571.53
0.9765625,4490.04,4697.1,4120.8,4205.97,4408.95,4703.7300000000005,4642.53,3806.13,4432.41,4525.74,3933.12,3973.41,4422.21,3572.55
0.984375,4486.47,4697.61,4124.88,4213.11,4406.91,4705.26,4644.57,3805.62,4434.45,4522.68,3936.69,3976.4700000000003,4419.15,3573.06
0.9921875,4486.9800000000005,4700.67,4124.37,4209.03,4408.4400000000005,4704.24,4642.53,3806.64,4432.41,4524.72,3934.65,3973.92,4420.17,3573.57
1.0,4489.02,4699.65,4124.88,4210.56,4405.38,4708.32,4643.55,3804.09,4433.43,4526.76,3931.59,3972.39,4420.68,3571.53
1.0078125,4488.0,4699.14,4129.9800000000005,4208.52,4406.4,4709.34,4646.1,3800.52,4435.47,4526.25,3930.57,3969.84,4420.17,3572.55
1.015625,4485.96,4700.67,4130.49,4204.95,4409.46,4708.32,4646.61,3803.07,4434.45,4526.25,3931.08,3967.29,4420.17,3570.0
1.0234375,4490.55,4697.61,4128.45,4204.4400000000005,4408.95,4705.77,4646.1,3804.09,4434.96,4527.27,3933.12,3967.29,4418.64,3568.4700000000003
1.03125,4493.61,4696.59,4129.9800000000005,4203.93,4404.87,4704.24,4645.08,3801.54,4437.0,4525.2300000000005,3932.1,3968.82,4417.62,3571.02
1.0390625,4491.06,4697.1,4129.9800000000005,4205.46,4403.85,4704.75,4644.57,3801.03,4438.53,4524.21,3933.12,3972.9,4418.64,3570.0
1.046875,4492.08,4695.06,4128.96,4211.07,4405.38,4706.28,4645.59,3801.03,4439.04,4525.74,3936.1800000000003,3973.41,4418.13,3567.4500000000003
1.0546875,4492.08,4697.61,4127.43,4212.09,4403.85,4707.81,4644.57,3803.07,4436.49,4524.72,3934.65,3970.86,4417.62,3568.4700000000003
1.0625,4488.0,4700.16,4124.88,4211.58,4404.36,4705.26,4639.47,3807.15,4434.96,4523.7,3933.12,3975.4500000000003,4420.68,3571.02
1.0703125,4489.02,4699.14,4125.9,4215.15,4408.4400000000005,4703.7300000000005,4641.51,3806.64,4435.9800000000005,4525.74,3933.63,3978.0,4422.72,3571.53
1.078125,4490.04,4700.16,4127.43,4211.58,4407.93,4705.26,4646.1,3805.62,4437.0,4525.74,3935.67,3974.94,4421.1900000000005,3572.04
1.0859375,4488.0,4700.67,4122.84,4204.95,4407.42,4704.75,4644.57,3808.17,4433.9400000000005,4524.72,3936.1800000000003,3974.94,4419.66,3573.06
1.09375,4487.49,4700.67,4122.33,4206.99,4409.46,4703.22,4643.55,3806.13,4433.9400000000005,4526.25,3932.61,3974.94,4419.66,3571.02
1.1015625,4488.0,4703.7300000000005,4129.9800000000005,4207.5,4407.93,4704.75,4644.06,3802.56,4437.0,4526.76,3931.08,3971.88,4421.1900000000005,3570.0
1.109375,4486.47,4703.22,4131.0,4205.97,4405.38,4705.26,4643.04,3804.09,4436.49,4524.72,3932.61,3967.29,4420.68,3571.02
1.1171875,4489.02,4700.16,4127.9400000000005,4206.99,4404.87,4705.77,4643.55,3804.09,4433.9400000000005,4523.7,3933.63,3966.78,4419.15,3570.51
1.125,4492.59,4701.18,4131.51,4203.42,4404.36,4707.3,4642.53,3802.05,4434.96,4525.2300000000005,3931.59,3971.37,4421.1900000000005,3570.0
1.1328125,4491.06,4701.18,4131.0,4202.91,4404.87,4706.79,4643.55,3802.56,4436.49,4523.7,3932.1,3974.4300000000003,4420.17,3569.4900000000002
1.140625,4489.02,4699.65,4126.41,4206.4800000000005,4406.91,4705.26,4645.08,3804.6,4433.9400000000005,4522.17,3935.16,3969.33,4419.15,3569.4900000000002
1.1484375,4488.0,4700.16,4128.45,4204.95,4406.91,4705.77,4644.57,3804.6,4434.45,4525.2300000000005,3933.63,3968.31,4420.68,3568.98
1.15625,4489.53,4699.14,4130.49,4202.91,4405.89,4706.28,4644.06,3804.09,4437.0,4525.74,3929.55,3973.92,4420.17,3568.98
1.1640625,4490.04,4696.59,4128.45,4204.95,4405.89,4704.75,4645.08,3804.6,4435.9800000000005,4524.72,3931.08,3972.39,4418.64,3568.98
1.171875,4488.0,4698.63,4127.43,4211.07,4405.89,4704.75,4644.57,3803.07,4434.96,4525.2300000000005,3933.63,3968.31,4420.17,3567.4500000000003
1.1796875,4490.55,4700.16,4128.96,4212.6,4405.89,4706.79,4641.51,3802.56,4434.45,4525.74,3933.12,3972.39,4421.7,3568.4700000000003
1.1875,4493.61,4701.6900000000005,4126.92,4208.01,4405.38,4704.75,4641.0,3803.58,4433.9400000000005,4525.74,3932.61,3974.4300000000003,4420.17,3570.0
1.1953125,4491.57,4705.77,4124.88,4207.5,4405.89,4703.7300000000005,4642.53,3805.11,4433.9400000000005,4525.74,3933.63,3971.88,4420.68,3568.4700000000003
1.203125,4490.04,4703.7300000000005,4126.41,4206.99,4405.89,4706.79,4642.02,3810.21,4435.47,4523.1900000000005,3933.63,3974.94,4423.2300000000005,3567.96
1.2109375,4489.02,4700.67,4124.88,4200.87,4404.36,4706.79,4641.51,3811.7400000000002,4435.47,4522.68,3932.1,3978.0,4420.68,3571.53
1.21875,4486.47,4702.2,4123.35,4197.81,4404.87,4705.26,4642.02,3808.6800000000003,4433.9400000000005,4525.2300000000005,3932.61,3975.96,4417.62,3571.53
1.2265625,4488.0,4701.6900000000005,4124.37,4197.3,4405.38,4707.3,4642.53,3806.64,4435.47,4526.25,3932.1,3973.41,4420.17,3569.4900000000002
1.234375,4491.57,4700.67,4127.43,4198.32,4407.93,4708.83,4644.06,3804.09,4437.0,4523.7,3930.06,3972.9,4419.66,3568.98
1.2421875,4490.04,4699.14,4127.9400000000005,4199.34,4410.99,4707.3,4643.04,3800.52,4435.9800000000005,4523.1900000000005,3932.1,3972.39,4417.11,3571.02
1.25,4489.02,4695.57,4125.39,4204.4400000000005,4410.4800000000005,4706.28,4642.53,3802.05,4435.9800000000005,4525.74,3933.63,3972.39,4420.68,3570.51
1.2578125,4490.55,4694.04,4126.92,4209.03,4406.91,4706.79,4644.06,3805.11,4437.51,4526.25,3931.59,3973.92,4421.7,3565.92
1.265625,4491.06,4696.59,4124.88,4203.42,4405.89,4706.28,4643.55,3804.09,4434.96,4525.2300000000005,3932.1,3973.41,4420.17,3567.4500000000003
1.2734375,4489.53,4697.61,4119.27,4201.89,4406.4,4705.77,4643.55,3802.05,4433.43,4527.78,3933.12,3973.41,4420.17,3572.55
1.28125,4488.0,4696.59,4122.33,4208.52,4404.36,4703.22,4643.04,3803.58,4434.96,4527.78,3933.63,3976.4700000000003,4419.66,3571.53
1.2890625,4491.06,4700.67,4124.37,4208.01,4405.89,4704.75,4643.04,3807.15,4433.9400000000005,4523.7,3934.14,3975.4500000000003,4419.66,3569.4900000000002
1.296875,4491.06,4701.18,4122.33,4204.4400000000005,4407.93,4707.81,4644.06,3805.62,4434.45,4523.7,3935.16,3974.94,4421.7,3570.51
1.3046875,4487.49,4697.1,4123.86,4208.01,4407.42,4705.77,4644.06,3804.6,4438.02,4524.72,3934.65,3976.4700000000003,4421.7,3570.51
1.3125,4489.53,4701.6900000000005,4125.9,4206.4800000000005,4407.42,4706.79,4645.59,3809.19,4438.53,4523.1900000000005,3931.59,3975.96,4418.13,3570.51
1.3203125,4491.57,4703.22,4122.33,4199.34,4406.4,4705.77,4645.59,3808.6800000000003,4434.45,4525.2300000000005,3933.12,3974.4300000000003,4418.64,3573.06
1.328125,4488.0,4697.1,4120.8,4198.32,4405.89,4704.24,4643.55,3804.6,4434.45,4526.76,3935.67,3973.41,4421.7,3571.53
1.3359375,4486.9800000000005,4697.1,4124.37,4201.89,4407.93,4706.28,4643.55,3805.11,4437.0,4524.21,3934.14,3975.96,4420.68,3567.4500000000003
1.34375,4490.04,4700.67,4128.45,4202.4,4405.38,4705.77,4644.57,3805.62,4435.9800000000005,4524.21,3932.61,3975.4500000000003,4419.66,3568.98
1.3515625,4489.02,4697.61,4130.49,4206.99,4403.34,4704.75,4645.59,3802.56,4434.96,4526.25,3932.61,3968.82,4421.1900000000005,3572.55
1.359375,4488.51,4696.59,4127.9400000000005,4209.03,4408.4400000000005,4707.3,4644.06,3802.05,4435.9800000000005,4526.76,3931.59,3968.82,4421.1900000000005,3573.57
1.3671875,4490.55,4695.57,4125.9,4206.4800000000005,4409.97,4707.3,4642.53,3802.56,4436.49,4525.2300000000005,3932.61,3974.4300000000003,4418.64,3567.96
1.375,4491.06,4695.57,4129.47,4209.54,4406.4,4703.7300000000005,4644.06,3800.01,4436.49,4522.68,3933.63,3972.39,4418.13,3565.92
1.3828125,4491.06,4696.59,4127.9400000000005,4210.56,4404.87,4704.24,4645.59,3801.54,4435.9800000000005,4522.68,3933.12,3968.31,4420.17,3572.55
1.390625,4490.04,4697.61,4122.84,4210.56,4408.4400000000005,4705.26,4643.55,3804.09,4434.45,4524.72,3930.57,3971.88,4420.17,3574.08
1.3984375,4489.53,4699.14,4125.39,4214.64,4409.46,4705.77,4642.02,3800.52,4434.96,4525.74,3930.57,3974.94,4420.68,3570.51
1.40625,4491.57,4700.67,4127.43,4215.66,4406.91,4706.28,4643.55,3802.56,4436.49,4523.7,3932.61,3974.94,4423.2300000000005,3570.51
1.4140625,4492.08,4700.67,4122.33,4215.66,4407.93,4706.28,4644.57,3806.64,4433.43,4523.7,3932.1,3974.94,4421.7,3572.55
1.421875,4489.02,4699.65,4119.78,4213.62,4408.4400000000005,4703.7300000000005,4643.04,3803.58,4431.9,4525.2300000000005,3932.1,3974.94,4418.64,3575.1
1.4296875,4486.47,4699.65,4123.35,4209.03,4406.91,4702.2,4641.51,3802.05,4433.43,4526.76,3933.12,3974.94,4420.68,3575.1
1.4375,4488.51,4701.18,4126.41,4205.97,4406.4,4704.75,4642.53,3805.62,4432.92,4526.25,3934.14,3971.88,4422.72,3572.04
1.4453125,4490.04,4700.16,4127.9400000000005,4201.89,4408.4400000000005,4705.77,4643.55,3803.58,4431.9,4526.76,3934.14,3967.29,4422.21,3571.53
1.453125,4486.47,4697.1,4128.45,4200.36,4409.46,4703.22,4644.06,3798.48,4432.92,4527.78,3933.63,3967.8,4420.17,3572.04
1.4609375,4488.0,4697.61,4126.41,4201.89,4406.4,4704.24,4643.55,3800.52,4434.96,4524.72,3934.65,3970.86,4420.17,3572.04
1.46875,4494.12,4700.16,4126.92,4199.34,4405.38,4707.81,4641.0,3802.05,4437.0,4521.66,3934.65,3968.82,4420.17,3572.55
1.4765625,4491.57,4697.1,4127.9400000000005,4198.32,4405.89,4705.77,4641.0,3800.52,4435.9800000000005,4525.2300000000005,3934.65,3968.31,4419.15,3571.53
1.484375,4487.49,4696.08,4126.41,4204.4400000000005,4404.87,4703.7300000000005,4642.02,3802.56,4434.45,4526.76,3934.65,3970.35,4419.15,3570.51
1.4921875,4490.04,4698.63,4125.39,4213.62,4406.91,4707.81,4643.04,3804.6,4435.47,4521.15,3932.1,3970.86,4419.15,3572.04
1.5,4494.63,4699.65,4126.92,4212.6,4406.91,4705.26,4642.53,3805.11,4435.9800000000005,4521.15,3931.08,3972.39,4420.17,3573.06
1.5078125,4494.63,4700.16,4125.9,4203.93,4404.36,4701.18,4643.04,3805.11,4431.9,4524.72,3931.59,3972.39,4421.7,3570.51
1.515625,4488.0,4701.18,4123.86,4207.5,4405.89,4705.77,4642.53,3804.09,4430.37,4523.7,3932.1,3973.92,4421.1900000000005,3570.0
1.5234375,4486.47,4701.6900000000005,4124.37,4212.09,4407.42,4708.32,4641.0,3804.09,4433.43,4523.7,3932.61,3975.4500000000003,4419.15,3572.04
1.53125,4491.57,4703.22,4125.39,4205.46,4405.89,4705.77,4644.06,3804.6,4434.96,4526.25,3931.59,3973.41,4420.17,3572.04
1.5390625,4490.04,4702.71,4126.92,4203.93,4406.91,4703.7300000000005,4644.06,3804.09,4432.92,4525.74,3931.59,3970.35,4421.1900000000005,3570.0
1.546875,4487.49,4699.14,4127.43,4209.54,4407.42,4703.22,4639.9800000000005,3805.11,4432.92,4525.74,3931.08,3969.84,4418.64,3571.53
1.5546875,4491.06,4699.65,4126.92,4209.03,4405.89,4705.77,4641.0,3807.15,4434.45,4526.25,3932.1,3971.88,4418.13,3571.53
1.5625,4492.59,4701.6900000000005,4127.43,4200.87,4407.42,4705.77,4644.57,3803.58,4435.47,4523.7,3934.65,3972.9,4421.7,3570.51
1.5703125,4488.51,4701.18,4126.92,4200.87,4407.42,4703.22,4645.59,3800.52,4432.92,4524.21,3933.12,3969.84,4421.1900000000005,3571.53
1.578125,4487.49,4700.16,4129.47,4202.4,4404.87,4703.7300000000005,4643.04,3801.03,4432.92,4526.25,3933.12,3968.31,4420.68,3570.51
1.5859375,4490.55,4700.67,4130.49,4197.3,4406.4,4705.26,4638.45,3802.56,4437.51,4525.2300000000005,3934.65,3967.29,4422.21,3570.0
1.59375,4491.06,4701.18,4129.47,4199.85,4407.93,4706.79,4642.02,3804.09,4440.06,4525.2300000000005,3933.63,3968.82,4420.68,3571.53
1.6015625,4491.06,4698.63,4131.51,4203.42,4405.89,4706.79,4644.57,3805.11,4438.53,4527.27,3934.65,3973.41,4418.13,3572.55
1.609375,4492.59,4697.61,4129.47,4200.87,4404.36,4707.3,4641.0,3805.62,4435.47,4526.25,3935.16,3974.4300000000003,4418.64,3569.4900000000002
1.6171875,4492.59,4700.67,4121.82,4204.4400000000005,4405.89,4707.81,4640.49,3807.66,4434.96,4524.72,3932.61,3975.96,4420.17,3567.4500000000003
1.625,4490.04,4699.14,4120.29,4210.05,4406.4,4707.3,4643.04,3809.19,4437.0,4524.72,3931.59,3979.53,4419.66,3571.02
1.6328125,4490.04,4697.61,4122.84,4209.54,4405.89,4706.79,4644.06,3807.15,4437.51,4525.2300000000005,3932.61,3979.53,4418.13,3571.53
1.640625,4493.1,4699.65,4121.82,4208.01,4407.42,4706.28,4643.04,3807.15,4433.43,4526.25,3933.63,3980.55,4421.1900000000005,3568.98
1.6484375,4492.59,4699.65,4120.8,4203.42,4406.91,4704.24,4643.04,3809.19,4432.41,4526.25,3933.63,3982.08,4423.74,3570.0
1.65625,4490.04,4697.1,4122.84,4198.32,4406.4,4705.26,4643.04,3807.15,4433.43,4524.72,3932.1,3980.04,4421.7,3573.57
1.6640625,4488.51,4694.55,4124.37,4198.83,4406.91,4707.81,4642.53,3804.6,4434.45,4524.72,3933.63,3978.0,4420.68,3572.55
1.671875,4489.53,4696.59,4124.37,4201.38,4405.89,4707.81,4643.55,3805.62,4434.45,4525.74,3935.67,3979.02,4420.17,3569.4900000000002
1.6796875,4490.55,4698.63,4126.41,4200.87,4405.38,4705.77,4644.06,3805.62,4433.43,4526.76,3935.16,3976.4700000000003,4420.68,3571.02
1.6875,4489.53,4695.57,4128.96,4201.89,4408.4400000000005,4704.75,4643.04,3805.62,4432.92,4526.76,3934.65,3970.86,4421.1900000000005,3573.06
1.6953125,4487.49,4693.53,4126.41,4202.91,4407.93,4707.3,4644.06,3806.13,4435.47,4524.72,3934.65,3970.86,4420.17,3571.53
1.703125,4486.9800000000005,4696.59,4124.88,4202.4,4403.34,4707.3,4642.53,3806.64,4436.49,4522.68,3933.63,3972.9,4420.17,3571.02
1.7109375,4487.49,4699.14,4125.9,4206.99,4403.34,4703.7300000000005,4640.49,3806.13,4435.47,4524.72,3934.14,3969.84,4422.21,3572.04
1.71875,4488.0,4696.59,4124.88,4209.03,4406.91,4705.26,4645.59,3805.11,4435.47,4527.78,3936.1800000000003,3968.82,4421.7,3572.04
1.7265625,4490.55,4693.53,4122.33,4207.5,4408.4400000000005,4708.32,4647.12,3805.62,4436.49,4527.78,3933.63,3973.92,4421.1900000000005,3572.04
1.734375,4492.08,4694.55,4124.88,4212.09,4408.4400000000005,4706.28,4642.02,3804.6,4434.96,4524.21,3931.08,3973.92,4420.68,3570.51
1.7421875,4490.04,4695.57,4126.41,4211.07,4406.4,4706.28,4642.02,3805.11,4432.92,4521.66,3933.63,3968.31,4419.66,3569.4900000000002
1.75,4488.51,4696.08,4121.31,4204.95,4404.87,4708.83,4648.14,3806.64,4433.43,4523.1900000000005,3933.63,3971.88,4420.17,3570.51
1.7578125,4489.02,4697.61,4122.33,4211.07,4404.36,4706.79,4644.06,3807.15,4434.45,4524.21,3929.55,3977.4900000000002,4420.68,3572.55
1.765625,4489.02,4698.12,4126.41,4211.58,4405.38,4702.2,4639.47,3808.17,4436.49,4523.1900000000005,3930.57,3975.4500000000003,4421.7,3574.08
1.7734375,4485.96,4699.65,4121.82,4204.4400000000005,4406.4,4703.22,4645.59,3809.19,4436.49,4524.72,3933.63,3972.9,4420.17,3571.53
1.78125,4483.92,4700.16,4119.27,4204.95,4406.4,4705.77,4646.1,3810.21,4435.9800000000005,4526.25,3934.65,3974.94,4420.17,3572.55
1.7890625,4484.9400000000005,4697.61,4125.39,4206.99,4406.4,4707.81,4642.02,3809.19,4437.0,4525.74,3934.14,3975.96,4422.72,3574.59
1.796875,4485.96,4695.57,4128.45,4203.93,4406.91,4707.81,4644.06,3805.11,4435.9800000000005,4526.76,3932.61,3974.94,4422.21,3573.06
1.8046875,4488.51,4694.04,4127.43,4201.89,4404.87,4706.28,4645.08,3802.56,4436.49,4526.25,3932.1,3969.84,4419.66,3571.53
1.8125,4489.53,4695.57,4129.9800000000005,4202.91,4404.36,4708.83,4642.53,3802.05,4438.53,4524.21,3933.12,3966.78,4419.66,3570.51
1.8203125,4488.0,4699.14,4131.0,4203.93,4406.4,4707.3,4642.02,3800.52,4438.02,4527.78,3933.63,3970.35,4421.1900000000005,3569.4900000000002
1.828125,4488.51,4697.61,4128.96,4210.56,4406.91,4702.71,4645.08,3801.03,4434.45,4529.31,3932.61,3968.82,4422.21,3568.98
1.8359375,4490.55,4695.06,4128.96,4215.66,4407.42,4702.71,4646.1,3803.07,4435.47,4526.76,3930.06,3965.25,4421.1900000000005,3572.55
1.84375,4488.51,4698.12,4127.43,4209.54,4405.38,4705.26,4644.57,3805.62,4437.51,4528.29,3932.1,3971.37,4419.15,3573.57
1.8515625,4486.9800000000005,4700.67,4125.39,4211.07,4403.34,4706.28,4641.51,3805.62,4435.47,4528.8,3933.12,3976.4700000000003,4419.15,3568.4700000000003
1.859375,4489.53,4699.65,4126.92,4211.07,4406.4,4706.28,4641.51,3802.56,4434.96,4524.72,3932.61,3973.92,4420.17,3567.4500000000003
1.8671875,4490.04,4702.2,4124.37,4204.4400000000005,4408.95,4707.3,4644.57,3803.58,4435.9800000000005,4524.21,3932.61,3972.39,4419.15,3571.02
1.875,4489.02,4704.24,4121.31,4203.93,4408.4400000000005,4705.77,4645.08,3805.11,4435.47,4525.74,3931.08,3974.4300000000003,4419.66,3570.51
1.8828125,4489.02,4700.16,4125.9,4205.46,4406.91,4704.24,4643.04,3802.05,4434.45,4524.21,3932.61,3974.4300000000003,4421.7,3570.51
1.890625,4489.53,4700.67,4129.47,4206.4800000000005,4406.91,4705.26,4644.06,3800.01,4433.43,4523.7,3934.14,3973.92,4418.64,3572.55
1.8984375,4488.51,4703.22,4127.43,4206.4800000000005,4407.93,4705.77,4644.57,3802.56,4434.45,4524.72,3933.63,3972.39,4416.6,3571.53
1.90625,4489.02,4702.2,4126.92,4200.87,4407.93,4704.75,4644.06,3801.54,4434.96,4524.72,3933.12,3971.37,4423.2300000000005,3571.53
1.9140625,4491.06,4700.16,4127.9400000000005,4198.32,4404.87,4704.24,4644.06,3799.5,4434.45,4524.72,3933.12,3974.4300000000003,4424.76,3570.51
1.921875,4491.57,4698.12,4128.45,4201.89,4401.81,4704.75,4643.55,3801.54,4432.92,4524.72,3932.61,3973.92,4420.68,3569.4900000000002
1.9296875,4490.04,4697.1,4127.43,4200.36,4405.38,4706.28,4644.06,3802.05,4432.41,4525.2300000000005,3931.59,3968.82,4420.17,3571.53
1.9375,4489.53,4698.12,4124.37,4199.85,4407.93,4706.28,4644.06,3799.5,4432.92,4524.21,3932.61,3969.84,4422.21,3573.57
1.9453125,4492.08,4698.63,4126.41,4202.91,4404.87,4703.22,4643.04,3801.54,4434.96,4523.7,3933.63,3972.9,4421.7,3571.02
1.953125,4492.08,4695.57,4128.45,4202.4,4405.38,4702.71,4643.04,3803.07,4435.9800000000005,4525.2300000000005,3932.61,3971.37,4418.13,3568.98
1.9609375,4490.55,4694.04,4121.82,4203.42,4407.42,4704.24,4641.51,3804.6,4436.49,4525.2300000000005,3934.14,3973.92,4418.64,3570.51
1.96875,4489.53,4696.59,4119.78,4206.4800000000005,4407.42,4703.7300000000005,4642.02,3809.19,4435.47,4524.21,3934.14,3975.96,4420.68,3572.55
1.9765625,4490.04,4699.65,4125.39,4207.5,4406.4,4703.22,4644.06,3809.19,4434.96,4524.21,3929.04,3974.94,4420.68,3573.06
1.984375,4487.49,4699.65,4120.8,4203.42,4406.91,4706.28,4642.53,3803.07,4436.49,4525.2300000000005,3939.75,3979.53,4420.68,3571.02
1.9921875,4486.9800000000005,4699.65,4123.35,4200.36,4407.93,4703.7300000000005,4643.04,3803.58,4432.92,4526.25,3936.1800000000003,3977.4900000000002,4420.17,3573.06
2.0,4488.0,4698.12,4123.35,4193.7300000000005,4407.93,4703.22,4644.06,3805.11,4433.9400000000005,4528.8,3930.57,3974.4300000000003,4419.66,3574.59
2.0078125,4488.0,4698.63,4123.86,4193.7300000000005,4406.4,4705.26,4644.57,3805.11,4437.0,4526.76,3933.63,3970.35,4420.17,3572.04
2.015625,4489.53,4700.16,4127.9400000000005,4196.28,4406.91,4704.75,4643.55,3803.58,4434.45,4524.21,3936.69,3967.29,4419.15,3569.4900000000002
2.0234375,4490.04,4699.14,4126.92,4200.36,4407.42,4704.24,4643.04,3804.09,4433.43,4526.76,3933.12,3969.84,4420.17,3571.53
2.03125,4488.51,4695.57,4124.88,4202.91,4406.91,4705.77,4644.06,3805.62,4437.0,4528.29,3930.06,3973.41,4420.17,3572.55
2.0390625,4491.06,4695.57,4124.37,4199.85,4406.91,4704.75,4643.55,3805.62,4438.02,4524.21,3930.57,3973.41,4418.13,3568.4700000000003
2.046875,4492.08,4698.63,4121.82,4202.4,4407.93,4703.22,4643.55,3804.6,4435.47,4522.17,3931.59,3974.94,4419.15,3564.9
2.0546875,4490.04,4696.08,4120.8,4210.56,4407.42,4702.71,4644.57,3805.62,4433.43,4525.2300000000005,3932.61,3976.4700000000003,4421.1900000000005,3568.4700000000003
2.0625,4489.53,4695.06,4123.86,4212.09,4406.91,4703.7300000000005,4643.04,3807.15,4433.9400000000005,4525.74,3931.08,3973.92,4420.68,3571.02
2.0703125,4489.53,4700.16,4125.9,4211.07,4407.93,4704.24,4644.06,3807.15,4435.9800000000005,4525.2300000000005,3931.08,3973.92,4420.17,3570.0
2.078125,4486.47,4701.18,4125.39,4211.58,4407.93,4705.77,4645.08,3803.58,4434.96,4526.25,3934.14,3974.94,4422.21,3572.04
2.0859375,4485.96,4700.16,4125.9,4213.11,4407.93,4706.79,4646.1,3803.07,4434.96,4526.76,3934.14,3973.92,4421.1900000000005,3570.51
2.09375,4489.02,4701.6900000000005,4127.9400000000005,4212.6,4408.4400000000005,4706.28,4646.61,3806.13,4435.9800000000005,4526.76,3932.61,3973.92,4421.1900000000005,3570.0
2.1015625,4490.55,4701.6900000000005,4126.92,4207.5,4406.91,4706.28,4646.1,3806.13,4434.96,4524.72,3931.08,3972.9,4422.72,3572.55
2.109375,4488.51,4700.67,4125.9,4203.93,4405.89,4706.79,4643.55,3803.58,4433.9400000000005,4524.21,3931.08,3970.86,4422.21,3572.04
2.1171875,4488.0,4700.16,4127.43,4204.4400000000005,4406.4,4705.26,4642.02,3804.09,4436.49,4525.2300000000005,3932.61,3973.41,4418.64,3571.02
2.125,4490.04,4699.65,4129.9800000000005,4205.46,4406.4,4705.26,4646.1,3805.62,4434.96,4524.72,3933.12,3971.88,4416.6,3571.53
2.1328125,4489.53,4698.12,4132.02,4204.4400000000005,4407.42,4706.79,4646.1,3804.09,4432.92,4524.72,3932.61,3968.31,4419.66,3572.04
2.140625,4486.47,4698.12,4129.47,4204.95,4408.95,4706.79,4643.55,3801.54,4434.96,4526.76,3932.61,3968.31,4421.1900000000005,3572.04
2.1484375,4488.51,4698.12,4127.43,4208.01,4406.91,4708.32,4645.08,3802.56,4436.49,4526.25,3934.14,3968.31,4419.66,3572.55
2.15625,4492.59,4696.59,4130.49,4205.46,4406.91,4710.36,4644.06,3803.58,4437.51,4523.1900000000005,3934.65,3966.27,4420.17,3571.53
2.1640625,4491.57,4696.59,4130.49,4207.5,4406.91,4708.83,4643.04,3802.56,4438.53,4521.15,3933.12,3968.31,4419.66,3570.51
2.171875,4488.51,4697.1,4127.9400000000005,4213.62,4404.87,4706.28,4644.06,3804.09,4435.9800000000005,4521.66,3931.59,3972.9,4420.17,3570.51
2.1796875,4488.51,4698.63,4126.92,4215.15,4405.89,4705.77,4644.06,3808.17,4435.9800000000005,4526.25,3931.08,3975.4500000000003,4420.17,3571.02
2.1875,4492.59,4702.71,4126.92,4214.64,4408.95,4706.28,4644.57,3808.17,4437.51,4527.27,3931.59,3976.4700000000003,4419.15,3571.53
2.1953125,4494.12,4704.24,4126.41,4210.56,4408.4400000000005,4705.77,4644.57,3805.11,4434.45,4525.74,3931.08,3974.4300000000003,4422.21,3569.4900000000002
2.203125,4489.02,4703.22,4124.88,4206.4800000000005,4406.4,4705.26,4643.04,3804.6,4429.86,4525.2300000000005,3930.57,3973.41,4424.25,3569.4900000000002
2.2109375,4488.51,4700.67,4124.88,4205.97,4405.38,4705.77,4644.06,3806.13,4431.9,4523.7,3933.12,3972.9,4421.7,3572.55
2.21875,4492.59,4701.6900000000005,4127.43,4201.89,4404.87,4705.26,4646.1,3805.11,4436.49,4523.7,3935.67,3968.31,4420.68,3574.59
2.2265625,4488.0,4703.22,4131.51,4198.32,4405.38,4706.79,4643.55,3800.52,4434.96,4525.74,3934.14,3966.78,4422.21,3573.06
2.234375,4484.43,4699.65,4129.9800000000005,4202.4,4406.4,4707.3,4642.02,3799.5,4432.41,4525.2300000000005,3934.65,3971.37,4421.7,3570.0
2.2421875,4491.57,4697.1,4124.88,4202.91,4405.38,4704.24,4643.04,3801.54,4432.41,4523.7,3935.16,3971.37,4418.64,3568.4700000000003
2.25,4493.1,4700.16,4125.9,4201.38,4405.38,4705.77,4641.51,3799.5,4431.9,4525.2300000000005,3933.12,3970.35,4419.15,3570.51
2.2578125,4487.49,4702.2,4129.47,4204.95,4407.42,4709.85,4642.02,3800.01,4432.92,4525.2300000000005,3932.1,3970.35,4421.7,3570.0
2.265625,4489.53,4699.14,4129.9800000000005,4209.03,4408.95,4709.34,4646.61,3804.09,4436.49,4524.72,3932.1,3968.31,4422.21,3568.4700000000003
2.2734375,4493.1,4698.63,4128.45,4205.46,4406.4,4704.75,4645.59,3804.6,4437.0,4526.76,3933.12,3968.82,4421.1900000000005,3570.51
2.28125,4490.55,4701.18,4128.45,4202.91,4405.89,4703.7300000000005,4641.0,3804.09,4433.9400000000005,4528.29,3933.12,3970.35,4420.68,3570.0
2.2890625,4489.02,4700.67,4127.9400000000005,4205.97,4407.93,4704.24,4641.51,3805.11,4433.43,4525.74,3933.12,3972.39,4420.17,3566.94
2.296875,4492.59,4698.12,4123.86,4206.4800000000005,4408.4400000000005,4704.24,4643.04,3806.13,4433.9400000000005,4523.1900000000005,3933.12,3975.4500000000003,4421.1900000000005,3566.94
2.3046875,4492.59,4697.61,4122.84,4205.97,4408.4400000000005,4705.26,4643.55,3805.11,4433.9400000000005,4524.72,3931.08,3976.4700000000003,4421.1900000000005,3567.4500000000003
2.3125,4489.53,4697.61,4123.86,4204.95,4408.4400000000005,4705.26,4642.53,3804.6,4434.45,4526.25,3931.08,3976.98,4419.15,3568.4700000000003
2.3203125,4489.02,4699.65,4118.76,4202.4,4407.93,4703.22,4643.04,3808.6800000000003,4434.45,4526.25,3934.14,3978.51,4420.17,3570.51
2.328125,4489.53,4702.2,4117.74,4203.42,4407.42,4703.7300000000005,4646.61,3809.7000000000003,4434.45,4524.72,3934.65,3975.4500000000003,4421.7,3570.51
2.3359375,4488.0,4700.16,4124.88,4202.4,4406.4,4706.28,4643.55,3807.15,4435.9800000000005,4524.72,3932.1,3970.86,4421.1900000000005,3570.51
2.34375,4485.96,4697.61,4126.92,4197.3,4406.91,4709.34,4642.53,3805.62,4434.45,4524.72,3932.1,3970.86,4419.15,3570.51
2.3515625,4486.47,4697.1,4128.45,4195.77,4407.93,4707.3,4644.06,3804.6,4433.9400000000005,4525.74,3935.16,3970.86,4418.13,3570.51
2.359375,4488.0,4693.53,4132.53,4199.34,4407.93,4703.7300000000005,4644.06,3803.07,4435.9800000000005,4525.74,3934.14,3969.84,4418.64,3570.51
2.3671875,4486.9800000000005,4694.55,4131.0,4201.89,4408.95,4703.22,4644.57,3803.07,4435.47,4525.2300000000005,3929.04,3975.4500000000003,4421.1900000000005,3570.51
2.375,4486.9800000000005,4697.1,4124.88,4201.38,4409.46,4704.75,4645.59,3802.56,4433.9400000000005,4525.2300000000005,3928.53,3976.98,4421.1900000000005,3572.55
2.3828125,4489.02,4695.57,4122.33,4205.97,4406.91,4707.81,4644.57,3804.09,4435.47,4525.2300000000005,3931.59,3972.39,4419.15,3571.53
2.390625,4489.53,4697.1,4124.88,4213.11,4404.36,4706.28,4644.06,3808.17,4437.0,4525.2300000000005,3933.12,3974.94,4421.1900000000005,3567.96
2.3984375,4489.02,4698.63,4125.39,4212.6,4404.36,4703.22,4645.59,3810.21,4437.51,4525.2300000000005,3932.61,3978.0,4421.7,3568.4700000000003
2.40625,4489.53,4698.12,4121.31,4210.05,4406.4,4704.75,4644.57,3805.62,4435.9800000000005,4524.21,3934.14,3974.4300000000003,4418.13,3571.02
2.4140625,4490.04,4700.16,4120.29,4206.99,4406.91,4705.77,4642.53,3803.58,4433.9400000000005,4525.2300000000005,3935.16,3974.94,4418.13,3570.51
2.421875,4488.51,4702.2,4123.86,4200.87,4406.91,4705.77,4645.08,3806.64,4433.9400000000005,4526.76,3931.08,3976.4700000000003,4422.21,3567.96
2.4296875,4484.43,4699.65,4124.37,4199.85,4407.42,4706.28,4644.57,3807.66,4435.9800000000005,4524.72,3930.57,3972.9,4422.72,3567.4500000000003
2.4375,4485.45,4697.1,4120.8,4203.93,4406.4,4704.24,4642.53,3806.64,4435.47,4522.17,3936.69,3974.94,4421.1900000000005,3570.0
2.4453125,4489.53,4698.63,4121.31,4204.95,4407.93,4703.7300000000005,4645.59,3804.09,4432.41,4524.21,3936.1800000000003,3975.4500000000003,4420.68,3570.51
2.453125,4488.0,4697.1,4129.47,4204.4400000000005,4408.4400000000005,4706.28,4646.61,3801.54,4432.92,4525.2300000000005,3932.1,3970.35,4420.68,3569.4900000000002
2.4609375,4486.47,4697.61,4130.49,4204.95,4405.89,4706.28,4645.59,3803.07,4436.49,4524.21,3932.61,3970.86,4420.17,3570.0
2.46875,4492.08,4700.16,4125.9,4205.46,4405.89,4703.7300000000005,4646.61,3804.6,4435.9800000000005,4523.7,3931.59,3970.35,4420.68,3571.53
2.4765625,4493.61,4697.61,4127.43,4205.97,4407.42,4704.24,4644.06,3801.54,4434.45,4525.2300000000005,3931.59,3966.27,4422.21,3571.53
2.484375,4489.53,4697.61,4128.45,4206.4800000000005,4407.93,4704.75,4643.04,3801.03,4434.45,4525.2300000000005,3933.12,3968.31,4421.1900000000005,3571.02
2.4921875,4489.02,4700.16,4126.92,4205.97,4407.42,4704.75,4646.1,3802.56,4433.9400000000005,4524.72,3934.14,3970.35,4420.17,3571.02
2.5,4488.0,4697.61,4128.96,4208.52,4407.42,4705.77,4645.59,3801.54,4435.47,4526.76,3933.12,3969.33,4421.1900000000005,3570.0
2.5078125,4485.45,4696.08,4128.96,4213.62,4407.42,4707.81,4644.06,3803.07,4435.9800000000005,4527.78,3931.59,3971.88,4420.17,3568.98
2.515625,4489.02,4699.14,4125.39,4210.56,4406.91,4705.77,4645.08,3803.58,4435.47,4525.74,3932.1,3972.39,4418.13,3570.51
2.5234375,4491.06,4699.65,4125.9,4209.54,4407.42,4703.22,4643.55,3802.05,4434.96,4523.1900000000005,3931.08,3969.84,4420.17,3571.53
2.53125,4487.49,4699.14,4125.9,4213.62,4405.89,4704.24,4640.49,3804.09,4432.41,4523.1900000000005,3931.08,3972.39,4421.7,3570.0
2.5390625,4487.49,4700.67,4123.86,4211.07,4403.34,4706.28,4642.53,3804.6,4431.9,4525.2300000000005,3933.63,3976.98,4421.1900000000005,3570.51
2.546875,4487.49,4700.67,4125.39,4205.97,4405.38,4705.77,4647.63,3803.58,4433.9400000000005,4525.2300000000005,3933.63,3974.94,4420.68,3572.04
2.5546875,4488.0,4700.67,4125.39,4202.91,4407.93,4701.6900000000005,4647.63,3805.11,4432.92,4524.21,3934.14,3972.9,4420.68,3570.0
2.5625,4491.57,4701.6900000000005,4123.35,4198.83,4407.42,4703.7300000000005,4644.06,3804.09,4431.39,4524.72,3934.65,3971.88,4421.1900000000005,3567.96
2.5703125,4491.06,4701.6900000000005,4126.92,4197.3,4406.4,4708.32,4642.02,3801.54,4434.45,4526.25,3931.59,3968.82,4420.17,3568.98
2.578125,4486.47,4699.14,4129.9800000000005,4200.36,4406.91,4705.26,4643.55,3804.6,4437.51,4527.27,3928.53,3966.78,4419.66,3570.0
2.5859375,4489.02,4697.1,4126.92,4202.4,4407.93,4701.18,4644.57,3805.62,4436.49,4525.74,3929.55,3966.78,4420.68,3567.96
2.59375,4493.61,4699.14,4125.9,4200.36,4407.93,4702.71,4644.57,3803.07,4436.49,4523.7,3933.12,3968.82,4420.17,3570.0
2.6015625,4492.08,4698.63,4125.9,4203.93,4405.89,4704.24,4645.08,3805.62,4437.0,4523.1900000000005,3934.65,3974.4300000000003,4417.11,3570.51
2.609375,4488.0,4696.59,4124.37,4210.56,4405.38,4703.7300000000005,4644.06,3808.17,4434.96,4524.72,3935.67,3975.4500000000003,4417.62,3567.4500000000003
2.6171875,4489.02,4699.14,4122.33,4208.52,4407.42,4704.75,4642.53,3807.66,4434.96,4525.74,3935.16,3972.9,4419.15,3571.02
2.625,4491.06,4701.6900000000005,4123.35,4205.46,4405.89,4706.79,4644.57,3807.15,4437.51,4522.68,3932.61,3974.94,4417.11,3572.04
2.6328125,4489.53,4700.16,4127.9400000000005,4205.97,4404.87,4706.28,4646.1,3805.62,4437.0,4521.66,3931.08,3975.4500000000003,4418.64,3569.4900000000002
2.640625,4488.51,4700.67,4127.43,4203.93,4405.38,4706.28,4644.57,3805.62,4432.92,4524.21,3932.61,3971.37,4420.68,3570.0
2.6484375,4490.55,4701.18,4123.86,4205.97,4405.89,4707.81,4645.08,3809.19,4433.43,4524.21,3934.65,3973.41,4419.66,3571.02
2.65625,4491.06,4700.67,4125.9,4205.97,4406.4,4708.83,4644.57,3808.6800000000003,4435.47,4524.21,3934.65,3976.98,4420.17,3570.51
2.6640625,4488.51,4703.22,4128.96,4203.93,4406.4,4705.77,4643.55,3805.62,4433.43,4525.2300000000005,3932.1,3975.4500000000003,4420.68,3570.0
2.671875,4487.49,4703.7300000000005,4126.92,4204.95,4405.38,4703.22,4643.55,3807.15,4431.39,4524.21,3932.1,3973.92,4421.7,3569.4900000000002
2.6796875,4489.53,4699.65,4126.41,4202.4,4406.4,4705.77,4643.55,3808.17,4433.9400000000005,4523.7,3935.16,3972.9,4422.21,3571.02
2.6875,4491.57,4701.18,4126.41,4198.32,4408.4400000000005,4706.79,4645.59,3806.13,4436.49,4524.21,3934.65,3973.41,4419.15,3572.04
2.6953125,4490.55,4699.14,4125.39,4197.81,4406.91,4704.24,4644.57,3805.62,4434.96,4523.7,3932.1,3972.9,4420.17,3570.51
2.703125,4488.51,4695.06,4125.9,4199.85,4404.87,4704.75,4643.55,3807.15,4434.96,4523.1900000000005,3933.63,3971.88,4424.25,3571.02
2.7109375,4488.51,4696.59,4126.41,4201.38,4405.89,4708.32,4645.08,3806.64,4437.51,4524.72,3934.14,3973.41,4421.1900000000005,3571.02
2.71875,4490.55,4696.59,4126.92,4205.46,4406.91,4706.28,4646.1,3805.11,4438.53,4524.72,3930.06,3973.41,4417.11,3569.4900000000002
2.7265625,4489.53,4694.55,4129.9800000000005,4211.07,4405.89,4703.7300000000005,4645.08,3804.09,4437.51,4524.72,3929.55,3972.39,4419.66,3571.53
2.734375,4485.96,4696.59,4127.9400000000005,4211.07,4405.38,4705.77,4643.04,3804.6,4438.02,4525.74,3932.61,3974.4300000000003,4423.74,3572.55
2.7421875,4489.53,4699.65,4121.31,4211.58,4407.93,4706.28,4643.55,3806.64,4438.02,4526.76,3931.08,3974.94,4422.21,3570.0
2.75,4493.1,4699.14,4123.86,4214.13,4407.93,4704.75,4642.53,3805.62,4434.96,4526.76,3931.59,3974.94,4418.13,3569.4900000000002
2.7578125,4488.0,4698.63,4126.41,4213.11,4405.38,4703.7300000000005,4639.9800000000005,3806.13,4433.43,4526.76,3934.65,3976.4700000000003,4418.64,3573.06
2.765625,4485.45,4700.67,4121.82,4209.54,4404.87,4705.26,4642.02,3808.17,4434.45,4526.25,3933.12,3976.4700000000003,4420.17,3572.55
2.7734375,4490.04,4699.14,4122.84,4205.46,4406.4,4708.83,4644.57,3807.15,4436.49,4525.74,3933.12,3974.4300000000003,4421.7,3571.02
2.78125,4491.06,4700.67,4127.43,4202.4,4409.97,4708.32,4644.06,3805.62,4437.51,4526.76,3936.1800000000003,3974.94,4421.1900000000005,3570.51
2.7890625,4487.49,4702.71,4127.9400000000005,4200.87,4408.4400000000005,4705.26,4641.51,3803.58,4436.49,4526.25,3936.1800000000003,3974.94,4418.64,3570.0
2.796875,4488.51,4696.59,4127.43,4198.83,4404.87,4705.26,4642.53,3802.56,4434.96,4523.7,3933.12,3970.86,4420.68,3571.02
2.8046875,4490.55,4692.0,4127.43,4201.89,4406.91,4707.81,4644.06,3803.58,4434.96,4523.1900000000005,3931.59,3969.33,4423.2300000000005,3571.53
2.8125,4490.55,4697.1,4128.45,4210.05,4407.93,4707.3,4641.0,3803.58,4435.47,4524.72,3934.14,3972.9,4422.21,3572.04
2.8203125,4490.04,4700.16,4129.47,4211.07,4405.38,4704.75,4641.51,3802.56,4435.9800000000005,4524.72,3933.12,3970.35,4419.15,3571.53
2.828125,4490.04,4697.61,4127.9400000000005,4207.5,4405.89,4703.22,4645.59,3802.05,4438.02,4524.72,3928.53,3967.29,4418.64,3568.98
2.8359375,4491.06,4696.59,4127.43,4208.52,4407.42,4703.7300000000005,4644.06,3803.07,4437.51,4525.74,3928.53,3971.37,4421.7,3570.51
2.84375,4490.04,4698.12,4126.41,4213.62,4406.91,4705.77,4643.04,3803.07,4432.92,4525.2300000000005,3931.59,3973.92,4422.72,3573.06
2.8515625,4486.9800000000005,4698.63,4126.92,4214.64,4405.38,4704.75,4643.55,3803.07,4433.43,4526.76,3932.1,3970.86,4420.17,3571.02
2.859375,4488.0,4699.65,4129.9800000000005,4209.03,4405.89,4704.24,4643.04,3805.62,4435.47,4529.31,3931.59,3968.31,4420.68,3567.96
2.8671875,4490.04,4698.12,4127.43,4204.95,4407.42,4706.79,4645.59,3806.13,4430.88,4528.8,3933.12,3968.31,4422.21,3570.0
2.875,4488.51,4697.1,4124.37,4207.5,4407.42,4706.28,4645.59,3803.58,4428.84,4526.76,3931.59,3969.33,4421.7,3571.02
2.8828125,4489.02,4701.18,4127.43,4208.52,4406.91,4706.79,4641.51,3802.05,4434.96,4524.21,3930.06,3969.84,4420.68,3569.4900000000002
2.890625,4490.04,4705.26,4130.49,4205.46,4407.93,4705.77,4642.53,3802.56,4435.9800000000005,4523.7,3932.61,3970.35,4420.17,3571.02
2.8984375,4486.47,4702.2,4128.45,4204.4400000000005,4407.93,4702.2,4646.61,3804.09,4432.41,4525.2300000000005,3934.14,3971.88,4419.66,3571.53
2.90625,4485.96,4697.61,4128.45,4206.99,4406.4,4705.26,4646.1,3804.09,4432.41,4525.74,3931.08,3971.37,4420.17,3570.0
2.9140625,4488.0,4696.59,4131.51,4206.4800000000005,4405.89,4707.3,4644.06,3802.56,4433.43,4524.21,3932.61,3968.82,4421.1900000000005,3570.0
2.921875,4488.51,4698.63,4130.49,4204.95,4407.93,4705.26,4645.59,3801.03,4431.9,4524.72,3934.14,3969.84,4420.68,3569.4900000000002
2.9296875,4490.55,4698.63,4128.96,4206.4800000000005,4410.4800000000005,4704.24,4645.08,3798.9900000000002,4430.37,4525.74,3931.59,3969.84,4418.64,3568.98
2.9375,4491.57,4697.1,4129.47,4208.01,4408.95,4704.75,4643.04,3801.03,4431.39,4525.74,3934.65,3968.82,4417.11,3568.98
2.9453125,4490.55,4699.14,4127.43,4210.05,4406.91,4705.26,4643.55,3807.66,4434.45,4524.72,3934.65,3972.39,4418.64,3568.4700000000003
2.953125,4493.1,4700.16,4124.88,4210.05,4406.91,4706.28,4645.59,3808.17,4435.9800000000005,4523.7,3931.59,3976.4700000000003,4420.68,3571.02
2.9609375,4490.55,4698.12,4122.33,4210.56,4406.4,4706.28,4644.57,3807.15,4433.9400000000005,4525.2300000000005,3931.59,3976.98,4420.17,3571.53
2.96875,4484.43,4698.63,4120.29,4211.07,4404.87,4704.75,4642.53,3811.7400000000002,4432.41,4526.25,3931.59,3980.55,4418.64,3567.96
2.9765625,4488.51,4700.67,4120.8,4203.93,4403.85,4705.26,4643.55,3812.25,4434.96,4524.72,3932.61,3982.08,4419.15,3569.4900000000002
2.984375,4488.0,4698.12,4122.33,4199.34,4407.93,4703.22,4641.0,3804.6,4432.92,4526.76,3934.14,3974.4300000000003,4421.1900000000005,3571.02
2.9921875,4487.49,4699.14,4121.82,4199.85,4406.91,4706.79,4640.49,3805.11,4434.45,4523.1900000000005,3934.65,3973.92,4422.21,3569.4900000000002
3.0,4488.0,4699.14,4124.37,4200.36,4405.38,4706.28,4643.55,3803.58,4435.9800000000005,4521.66,3934.65,3970.86,4421.1900000000005,3570.51
3.0078125,4489.53,4694.55,4126.41,4199.85,4405.38,4704.24,4643.55,3803.07,4438.02,4525.74,3933.63,3970.86,4421.7,3570.51
3.015625,4491.57,4693.02,4127.43,4200.36,4407.42,4705.77,4643.04,3803.07,4437.51,4526.76,3935.16,3973.41,4421.7,3571.02
3.0234375,4489.53,4697.1,4125.9,4200.87,4406.4,4706.79,4643.55,3802.56,4433.43,4523.7,3938.2200000000003,3972.9,4420.17,3571.02
3.03125,4486.47,4698.12,4122.33,4200.36,4403.85,4704.75,4644.06,3803.58,4433.9400000000005,4522.68,3934.65,3971.37,4419.66,3571.02
3.0390625,4489.02,4696.08,4124.88,4202.4,4406.4,4705.77,4644.06,3805.11,4437.0,4524.21,3930.57,3972.39,4421.7,3572.04
3.046875,4489.02,4696.08,4127.43,4201.89,4408.95,4706.28,4643.04,3806.64,4433.9400000000005,4524.21,3934.14,3975.4500000000003,4422.21,3572.04
3.0546875,4487.49,4696.59,4123.86,4200.87,4408.4400000000005,4704.24,4642.02,3806.13,4430.88,4523.1900000000005,3934.14,3977.4900000000002,4420.68,3571.53
3.0625,4489.53,4697.61,4124.37,4204.95,4406.91,4703.22,4643.04,3805.11,4435.9800000000005,4523.1900000000005,3930.57,3978.0,4419.66,3571.53
3.0703125,4491.57,4697.61,4125.39,4208.52,4405.38,4702.71,4642.53,3804.09,4438.02,4524.72,3929.04,3975.4500000000003,4420.68,3572.55
3.078125,4489.53,4697.61,4121.82,4210.56,4405.89,4705.26,4643.55,3805.62,4433.9400000000005,4526.25,3930.57,3975.96,4421.1900000000005,3572.04
3.0859375,4488.51,4698.63,4121.82,4210.56,4407.42,4705.77,4646.1,3807.66,4433.43,4525.2300000000005,3932.61,3979.02,4419.15,3573.06
3.09375,4488.51,4700.67,4124.37,4204.4400000000005,4407.42,4705.77,4645.08,3806.13,4434.96,4523.1900000000005,3933.63,3978.51,4420.17,3572.55
3.1015625,4485.96,4700.16,4121.82,4203.93,4407.93,4708.32,4641.51,3805.11,4433.43,4525.2300000000005,3933.12,3976.4700000000003,4423.2300000000005,3571.02
3.109375,4485.96,4697.61,4123.35,4205.97,4409.46,4706.28,4642.02,3805.62,4433.43,4526.25,3933.12,3973.92,4421.7,3572.04
3.1171875,4487.49,4699.65,4127.43,4202.91,4407.93,4705.26,4644.57,3804.09,4434.45,4525.74,3934.14,3971.37,4418.64,3570.51
3.125,4488.0,4701.6900000000005,4128.96,4201.89,4404.87,4707.3,4644.06,3803.58,4433.9400000000005,4524.21,3933.63,3971.37,4419.15,3569.4900000000002
3.1328125,4488.0,4695.06,4129.9800000000005,4203.93,4405.38,4706.79,4642.02,3805.62,4435.9800000000005,4523.1900000000005,3931.59,3970.35,4420.68,3572.55
3.140625,4488.0,4690.47,4128.96,4202.91,4405.38,4705.26,4643.55,3803.58,4438.02,4523.7,3931.59,3970.86,4419.15,3573.06
3.1484375,4489.53,4693.53,4126.92,4200.87,4404.87,4704.75,4646.61,3802.05,4436.49,4524.72,3933.12,3972.39,4418.13,3572.04
3.15625,4490.04,4697.61,4127.43,4208.01,4405.38,4705.26,4646.61,3805.11,4437.0,4524.72,3933.12,3970.35,4418.13,3572.04
3.1640625,4489.02,4697.61,4127.43,4215.15,4406.4,4704.24,4642.53,3806.64,4435.9800000000005,4525.74,3932.1,3970.86,4420.17,3570.51
3.171875,4490.04,4698.63,4125.9,4215.15,4407.42,4703.22,4641.0,3807.66,4432.92,4526.25,3931.59,3975.4500000000003,4421.1900000000005,3572.04
3.1796875,4489.53,4701.6900000000005,4127.43,4212.6,4406.91,4704.24,4644.57,3808.17,4433.9400000000005,4523.1900000000005,3932.1,3976.4700000000003,4420.17,3573.57
3.1875,4486.47,4702.2,4127.9400000000005,4212.09,4406.91,4705.26,4644.57,3806.13,4434.96,4524.21,3934.14,3974.94,4422.72,3571.53
3.1953125,4488.0,4701.6900000000005,4125.9,4213.62,4408.4400000000005,4704.75,4644.06,3804.09,4431.9,4527.27,3933.12,3974.4300000000003,4421.7,3570.51
3.203125,4490.55,4701.6900000000005,4128.45,4210.05,4409.97,4704.24,4644.57,3804.09,4433.43,4524.21,3932.1,3973.41,4419.15,3571.53
3.2109375,4487.49,4701.6900000000005,4131.51,4206.99,4408.4400000000005,4705.26,4642.02,3804.6,4435.47,4522.17,3932.1,3970.35,4420.68,3571.53
3.21875,4488.0,4700.67,4128.96,4209.03,4407.42,4706.79,4644.06,3804.6,4432.92,4525.74,3931.59,3969.84,4420.17,3571.53
3.2265625,4490.55,4700.16,4128.96,4205.97,4407.93,4706.28,4645.08,3803.58,4433.9400000000005,4526.25,3932.61,3971.88,4418.13,3570.51
3.234375,4489.53,4699.65,4132.02,4198.83,4406.91,4704.24,4642.53,3803.58,4437.0,4523.1900000000005,3933.63,3973.41,4419.66,3570.51
3.2421875,4489.02,4697.1,4132.53,4197.3,4405.38,4703.7300000000005,4642.02,3805.11,4434.45,4523.7,3933.63,3972.39,4419.15,3571.53
3.25,4490.04,4698.12,4131.0,4199.85,4404.87,4705.26,4644.57,3802.56,4433.9400000000005,4527.27,3932.61,3968.31,4417.11,3570.0
3.2578125,4489.02,4701.18,4129.47,4201.89,4407.93,4705.26,4644.57,3799.5,4435.47,4526.25,3932.1,3967.8,4419.66,3569.4900000000002
3.265625,4488.51,4700.67,4129.47,4201.89,4408.95,4705.26,4643.04,3804.09,4435.47,4525.2300000000005,3933.12,3969.84,4421.1900000000005,3568.4700000000003
3.2734375,4489.02,4700.67,4128.45,4200.36,4407.42,4706.28,4641.0,3804.6,4435.47,4526.25,3932.1,3968.31,4420.17,3567.96
3.28125,4491.06,4702.71,4125.9,4205.46,4406.91,4705.77,4642.02,3797.9700000000003,4433.9400000000005,4524.72,3931.59,3968.82,4420.17,3568.4700000000003
3.2890625,4491.57,4700.16,4126.92,4212.09,4407.42,4704.24,4646.61,3799.5,4434.45,4522.68,3934.14,3972.9,4420.17,3569.4900000000002
3.296875,4489.02,4697.1,4128.45,4213.62,4406.91,4705.77,4648.65,3806.13,4435.9800000000005,4524.21,3933.63,3973.92,4419.66,3570.0
3.3046875,4488.51,4699.14,4124.88,4210.05,4403.85,4708.32,4643.55,3805.62,4434.45,4527.78,3931.59,3974.94,4421.1900000000005,3571.02
3.3125,4489.02,4701.18,4124.37,4205.97,4404.87,4706.79,4642.02,3803.58,4434.45,4527.27,3933.63,3978.51,4422.72,3570.51
3.3203125,4486.9800000000005,4700.16,4124.88,4202.91,4408.95,4706.79,4646.61,3806.64,4436.49,4524.21,3935.67,3978.0,4419.15,3570.0
3.328125,4486.9800000000005,4701.6900000000005,4120.8,4194.75,4409.97,4705.77,4645.59,3808.6800000000003,4434.96,4523.7,3935.67,3975.4500000000003,4419.66,3573.57
3.3359375,4490.04,4702.71,4121.31,4192.71,4407.93,4703.7300000000005,4643.04,3804.09,4433.9400000000005,4524.72,3934.65,3973.92,4422.72,3573.06
3.34375,4489.02,4698.12,4126.92,4195.26,4406.4,4704.75,4644.57,3800.52,4437.0,4524.21,3934.65,3971.37,4420.17,3571.53
3.3515625,4488.51,4693.53,4125.39,4196.79,4407.42,4705.77,4645.08,3802.56,4438.02,4523.1900000000005,3935.67,3972.39,4419.66,3572.04
3.359375,4491.57,4696.08,4124.37,4205.46,4408.4400000000005,4704.24,4645.08,3803.58,4437.0,4523.7,3932.1,3973.92,4421.1900000000005,3570.51
3.3671875,4490.04,4696.59,4128.45,4207.5,4405.38,4703.7300000000005,4644.57,3801.54,4438.02,4524.72,3930.06,3973.41,4419.66,3571.53
3.375,4488.51,4693.02,4123.86,4201.38,4403.34,4706.79,4645.59,3802.05,4437.0,4525.2300000000005,3933.63,3974.94,4419.15,3573.06
3.3828125,4491.06,4693.02,4119.27,4204.95,4405.89,4704.75,4645.59,3803.58,4434.45,4525.74,3934.14,3977.4900000000002,4420.17,3572.55
3.390625,4491.06,4695.57,4120.8,4206.4800000000005,4407.42,4704.24,4644.06,3804.09,4434.96,4524.72,3932.61,3975.4500000000003,4420.68,3571.02
3.3984375,4488.0,4695.06,4122.33,4203.42,4405.38,4709.34,4643.55,3807.15,4437.0,4523.7,3934.14,3973.41,4419.66,3570.51
3.40625,4489.53,4693.02,4123.86,4206.99,4404.36,4705.77,4643.04,3811.23,4438.02,4524.72,3934.65,3975.4500000000003,4419.15,3571.53
3.4140625,4488.51,4698.12,4124.37,4207.5,4406.4,4702.71,4642.53,3808.6800000000003,4437.0,4526.25,3931.08,3976.98,4419.66,3573.57
3.421875,4484.43,4701.6900000000005,4123.35,4203.42,4407.42,4705.77,4643.55,3802.56,4433.9400000000005,4527.78,3931.08,3978.0,4419.15,3573.06
3.4296875,4484.9400000000005,4696.08,4123.35,4204.4400000000005,4405.38,4705.77,4645.08,3803.58,4434.96,4525.74,3934.65,3974.94,4418.13,3569.4900000000002
3.4375,4486.47,4696.08,4125.9,4208.52,4406.91,4704.75,4644.57,3806.13,4437.0,4524.21,3934.14,3972.9,4419.15,3568.98
3.4453125,4486.47,4701.18,4126.92,4208.01,4409.46,4705.77,4642.02,3805.11,4435.9800000000005,4526.76,3933.63,3974.94,4420.68,3570.51
3.453125,4487.49,4700.16,4124.88,4207.5,4407.93,4704.24,4643.04,3804.09,4434.96,4526.76,3933.63,3971.88,4420.17,3570.51
3.4609375,4489.53,4699.65,4124.88,4205.97,4405.89,4703.22,4645.59,3802.56,4436.49,4523.7,3933.12,3967.8,4421.1900000000005,3568.98
3.46875,4490.04,4702.71,4126.41,4202.91,4407.93,4704.24,4646.1,3800.01,4435.47,4523.1900000000005,3934.65,3969.84,4422.72,3570.0
3.4765625,4486.47,4699.14,4126.92,4206.99,4408.4400000000005,4705.77,4645.08,3799.5,4433.9400000000005,4525.2300000000005,3933.63,3969.33,4419.15,3568.98
3.484375,4485.96,4695.06,4129.9800000000005,4208.52,4405.89,4706.28,4643.55,3802.05,4436.49,4526.25,3932.1,3967.8,4419.66,3568.98
3.4921875,4489.53,4696.08,4130.49,4205.97,4404.36,4704.75,4643.55,3802.56,4437.51,4524.72,3934.14,3967.8,4422.72,3569.4900000000002
3.5,4489.02,4696.59,4128.96,4211.07,4406.4,4704.75,4644.57,3801.03,4434.96,4522.17,3933.12,3970.35,4420.68,3569.4900000000002
3.5078125,4488.0,4696.08,4128.96,4216.68,4407.93,4707.81,4645.08,3804.6,4433.9400000000005,4524.72,3931.08,3973.41,4420.17,3570.51
3.515625,4489.53,4697.61,4126.92,4214.64,4408.4400000000005,4707.3,4644.57,3807.15,4434.45,4527.78,3930.57,3973.92,4420.68,3571.02
3.5234375,4489.02,4699.65,4125.39,4211.58,4407.93,4703.22,4642.53,3802.05,4432.92,4524.72,3932.61,3971.37,4421.7,3571.02
3.53125,4488.51,4700.67,4124.37,4210.56,4405.89,4702.71,4641.51,3801.03,4431.39,4522.17,3934.65,3970.86,4422.21,3571.02
3.5390625,4486.47,4701.18,4122.84,4209.03,4403.85,4704.75,4642.53,3807.66,4432.41,4525.74,3933.12,3973.41,4420.68,3572.04
3.546875,4486.47,4699.65,4125.39,4202.91,4404.36,4705.77,4641.51,3806.64,4435.9800000000005,4525.74,3933.12,3973.41,4419.66,3572.55
3.5546875,4486.47,4699.65,4128.45,4199.34,4408.4400000000005,4704.75,4643.55,3801.54,4436.49,4524.21,3934.14,3970.35,4421.7,3573.06
3.5625,4484.9400000000005,4699.65,4126.92,4203.93,4407.42,4703.7300000000005,4645.59,3800.52,4433.9400000000005,4525.2300000000005,3933.63,3967.29,4422.21,3574.08
3.5703125,4488.0,4697.61,4127.43,4204.95,4404.87,4704.75,4642.53,3800.52,4433.43,4525.2300000000005,3934.14,3968.82,4421.1900000000005,3572.55
3.578125,4491.57,4700.16,4131.51,4201.89,4407.42,4707.81,4642.53,3801.54,4434.96,4523.7,3934.14,3970.35,4421.1900000000005,3571.02
3.5859375,4492.08,4701.6900000000005,4128.96,4204.95,4406.91,4706.79,4646.1,3802.56,4436.49,4523.1900000000005,3932.61,3969.33,4422.21,3571.02
3.59375,4490.55,4698.12,4125.9,4208.52,4405.89,4704.24,4646.1,3802.05,4435.9800000000005,4523.1900000000005,3932.1,3970.86,4421.1900000000005,3571.02
3.6015625,4490.04,4698.12,4125.39,4204.95,4407.93,4703.7300000000005,4646.1,3802.56,4434.96,4524.21,3933.12,3974.94,4419.15,3571.53
3.609375,4490.04,4699.65,4123.35,4198.32,4406.91,4703.22,4646.1,3805.62,4435.9800000000005,4526.25,3931.59,3975.4500000000003,4419.66,3573.06
3.6171875,4490.55,4698.63,4121.31,4198.83,4404.36,4704.75,4644.06,3804.6,4436.49,4526.76,3930.57,3973.92,4422.21,3571.53
3.625,4490.55,4696.59,4120.8,4202.4,4406.91,4704.75,4642.02,3802.56,4435.9800000000005,4525.2300000000005,3932.1,3974.94,4421.1900000000005,3568.4700000000003
3.6328125,4489.53,4697.61,4120.8,4203.93,4409.46,4703.7300000000005,4643.04,3805.11,4434.45,4524.21,3932.1,3974.4300000000003,4420.68,3568.4700000000003
3.640625,4489.53,4701.6900000000005,4122.84,4205.46,4408.4400000000005,4705.26,4643.04,3808.17,4433.9400000000005,4524.72,3934.14,3972.39,4420.68,3568.98
3.6484375,4490.04,4703.22,4123.86,4204.95,4408.4400000000005,4705.77,4642.02,3808.17,4433.43,4524.72,3936.69,3973.92,4420.17,3571.02
3.65625,4490.55,4702.2,4121.31,4206.4800000000005,4406.4,4705.77,4644.57,3805.11,4433.9400000000005,4523.1900000000005,3934.65,3976.4700000000003,4420.68,3571.02
3.6640625,4489.02,4699.65,4122.84,4205.97,4405.38,4704.75,4643.55,3805.62,4435.47,4524.21,3933.12,3977.4900000000002,4421.7,3570.0
3.671875,4486.9800000000005,4701.18,4126.41,4199.34,4406.91,4705.77,4638.96,3808.17,4435.47,4526.76,3933.63,3974.94,4421.1900000000005,3572.04
3.6796875,4489.02,4701.18,4123.86,4197.3,4405.38,4707.3,4642.53,3806.64,4432.92,4526.25,3932.1,3973.92,4420.68,3572.04
3.6875,4490.04,4694.55,4124.37,4198.83,4405.38,4705.77,4645.08,3801.54,4432.92,4522.68,3932.61,3975.4500000000003,4422.21,3572.55
3.6953125,4489.02,4693.53,4129.9800000000005,4200.87,4407.93,4703.22,4644.06,3803.58,4437.51,4522.68,3932.1,3972.39,4418.64,3571.02
3.703125,4491.57,4697.61,4129.9800000000005,4203.93,4406.91,4704.75,4643.04,3807.66,4439.55,4525.74,3930.57,3968.82,4416.6,3567.96
3.7109375,4492.59,4695.57,4123.86,4205.97,4404.87,4706.79,4644.06,3806.13,4437.51,4525.2300000000005,3932.1,3971.37,4420.17,3568.4700000000003
3.71875,4488.51,4694.04,4123.86,4209.54,4406.91,4706.79,4644.06,3805.11,4435.47,4522.68,3934.14,3976.4700000000003,4419.66,3570.0
3.7265625,4489.02,4697.1,4126.41,4213.62,4406.4,4705.26,4641.0,3810.21,4434.96,4526.76,3932.1,3978.51,4418.64,3570.51
3.734375,4492.59,4697.1,4122.84,4213.11,4404.36,4705.26,4641.51,3812.25,4436.49,4527.78,3931.08,3975.96,4420.17,3570.0
3.7421875,4491.57,4697.61,4119.27,4210.05,4407.42,4706.28,4645.08,3808.6800000000003,4437.51,4523.1900000000005,3934.14,3976.98,4422.21,3569.4900000000002
3.75,4490.04,4701.18,4121.82,4206.99,4407.93,4705.26,4645.08,3806.13,4435.47,4524.21,3935.16,3978.51,4423.2300000000005,3570.51
3.7578125,4491.06,4699.14,4125.9,4206.4800000000005,4406.4,4704.24,4642.02,3806.13,4432.92,4527.27,3932.61,3974.4300000000003,4422.21,3571.02
3.765625,4489.02,4698.63,4126.41,4205.46,4406.91,4705.77,4641.0,3807.66,4434.96,4524.21,3934.14,3973.92,4422.21,3569.4900000000002
3.7734375,4486.47,4702.2,4123.86,4203.93,4406.4,4706.28,4644.06,3807.66,4437.0,4524.72,3934.65,3979.02,4421.1900000000005,3569.4900000000002
3.78125,4488.0,4699.14,4124.37,4201.38,4405.38,4705.77,4644.06,3804.6,4434.96,4529.31,3932.61,3978.51,4420.68,3569.4900000000002
3.7890625,4489.53,4695.57,4127.43,4198.32,4405.89,4705.26,4641.51,3805.62,4434.45,4526.76,3935.16,3975.4500000000003,4420.68,3570.0
3.796875,4487.49,4697.1,4127.43,4202.91,4407.42,4705.26,4644.06,3807.15,4437.0,4523.1900000000005,3937.2000000000003,3973.92,4420.68,3571.02
3.8046875,4487.49,4698.12,4126.92,4202.4,4406.91,4706.79,4646.1,3804.6,4438.53,4525.2300000000005,3935.67,3973.41,4419.66,3571.02
3.8125,4488.51,4696.59,4127.9400000000005,4196.79,4408.4400000000005,4708.32,4643.04,3804.6,4436.49,4526.76,3935.67,3973.41,4418.13,3571.02
3.8203125,4485.96,4696.59,4127.43,4202.4,4408.4400000000005,4705.77,4641.51,3806.13,4433.43,4525.2300000000005,3935.67,3974.94,4418.64,3571.02
3.828125,4487.49,4696.59,4126.92,4211.58,4405.38,4703.7300000000005,4643.55,3803.07,4436.49,4525.2300000000005,3932.61,3972.9,4420.68,3572.04
3.8359375,4492.08,4696.59,4125.39,4212.09,4405.89,4704.75,4644.06,3803.07,4438.02,4524.72,3931.08,3971.37,4421.7,3571.53
3.84375,4489.53,4698.12,4125.39,4212.6,4408.4400000000005,4706.79,4644.06,3805.11,4434.45,4523.1900000000005,3932.61,3971.88,4421.7,3572.55
3.8515625,4487.49,4698.63,4126.41,4212.09,4408.95,4706.28,4643.04,3804.09,4433.43,4524.72,3931.59,3971.37,4420.68,3573.57
3.859375,4491.06,4699.65,4127.43,4211.58,4407.93,4703.7300000000005,4640.49,3803.58,4436.49,4524.72,3929.04,3971.37,4418.64,3572.04
3.8671875,4492.59,4699.65,4126.41,4211.58,4407.42,4701.6900000000005,4641.51,3806.64,4436.49,4522.68,3932.1,3974.94,4419.66,3572.04
3.875,4490.04,4698.63,4124.37,4206.99,4406.91,4702.2,4645.59,3807.66,4433.9400000000005,4525.2300000000005,3933.63,3974.4300000000003,4420.68,3572.55
3.8828125,4488.0,4698.12,4124.88,4205.46,4405.38,4702.2,4644.06,3805.62,4433.43,4526.76,3930.57,3973.41,4418.64,3572.55
3.890625,4486.9800000000005,4697.61,4125.39,4205.97,4406.91,4701.18,4643.04,3804.6,4434.45,4524.21,3930.06,3973.41,4419.66,3571.02
3.8984375,4488.0,4698.12,4127.9400000000005,4204.95,4406.91,4703.22,4647.63,3802.05,4433.9400000000005,4523.1900000000005,3934.14,3971.37,4422.72,3571.02
3.90625,4489.02,4697.61,4130.49,4202.91,4403.85,4704.75,4646.61,3801.54,4432.41,4525.74,3937.2000000000003,3969.33,4421.7,3572.55
3.9140625,4488.51,4697.1,4127.9400000000005,4200.87,4402.83,4704.75,4645.08,3801.03,4434.45,4526.25,3935.16,3969.33,4419.66,3572.04
3.921875,4488.0,4698.63,4126.41,4201.38,4405.89,4705.26,4646.61,3797.46,4434.96,4524.21,3932.61,3969.84,4420.68,3572.55
3.9296875,4490.04,4699.65,4128.45,4206.4800000000005,4406.4,4705.26,4643.04,3797.9700000000003,4433.43,4523.7,3933.12,3967.8,4421.7,3572.55
3.9375,4492.08,4699.65,4128.96,4211.58,4404.87,4706.79,4641.51,3799.5,4437.0,4527.27,3931.59,3966.78,4420.17,3570.0
3.9453125,4491.57,4698.63,4125.9,4208.01,4406.4,4705.26,4645.08,3799.5,4440.57,4528.8,3931.08,3969.84,4419.15,3570.51
3.953125,4491.06,4699.65,4121.82,4206.4800000000005,4408.95,4703.22,4645.08,3802.05,4435.9800000000005,4525.74,3931.59,3973.41,4420.68,3571.02
3.9609375,4491.57,4701.6900000000005,4123.35,4210.56,4407.93,4704.24,4643.55,3803.58,4431.9,4522.68,3932.61,3974.4300000000003,4422.21,3567.96
3.96875,4490.55,4699.65,4125.9,4205.97,4405.89,4705.26,4645.59,3805.11,4435.47,4523.7,3933.63,3973.41,4421.1900000000005,3566.94
3.9765625,4489.02,4700.16,4122.33,4201.89,4406.91,4706.79,4644.06,3807.15,4435.47,4525.2300000000005,3934.14,3972.9,4419.66,3568.98
3.984375,4488.51,4700.16,4124.37,4203.93,4405.89,4704.24,4644.57,3804.09,4432.41,4524.21,3935.16,3972.9,4423.2300000000005,3573.57
3.9921875,4489.02,4701.18,4126.92,4203.93,4408.95,4705.26,4644.57,3806.64,4434.45,4524.72,3933.63,3973.92,4419.15,3571.02
4.0,4492.08,4701.6900000000005,4127.43,4203.42,4411.5,4704.75,4643.04,3804.6,4432.92,4523.7,3935.16,3970.86,4421.1900000000005,3568.4700000000003
4.0078125,4492.08,4699.65,4129.47,4199.85,4410.4800000000005,4704.24,4645.59,3802.56,4432.92,4523.1900000000005,3935.67,3970.35,4422.72,3568.98
4.015625,4492.08,4700.67,4131.0,4199.85,4407.93,4704.24,4645.59,3804.09,4433.9400000000005,4523.7,3932.61,3971.37,4420.68,3570.0
4.0234375,4494.12,4701.18,4129.47,4200.36,4406.4,4704.24,4643.55,3800.52,4433.43,4523.7,3932.1,3968.31,4421.1900000000005,3571.02
4.03125,4492.08,4698.12,4126.92,4200.87,4406.4,4704.75,4644.57,3797.46,4433.9400000000005,4525.2300000000005,3935.16,3966.27,4421.1900000000005,3571.02
4.0390625,4491.57,4694.04,4127.9400000000005,4199.34,4406.91,4705.26,4646.61,3803.58,4436.49,4526.76,3936.69,3971.88,4420.68,3570.51
4.046875,4492.59,4696.08,4129.9800000000005,4198.32,4406.4,4703.22,4646.61,3806.13,4438.02,4525.2300000000005,3934.14,3973.92,4420.68,3569.4900000000002
4.0546875,4489.02,4698.12,4125.39,4199.85,4406.4,4702.2,4643.55,3804.09,4437.51,4523.1900000000005,3931.59,3971.88,4421.7,3570.51
4.0625,4488.51,4695.57,4117.74,4203.93,4406.4,4704.75,4641.51,3809.19,4435.9800000000005,4524.72,3933.63,3977.4900000000002,4421.1900000000005,3570.51
4.0703125,4491.06,4694.55,4120.8,4208.52,4406.91,4704.75,4644.57,3812.25,4433.9400000000005,4526.25,3933.63,3981.06,4421.1900000000005,3569.4900000000002
4.078125,4489.02,4698.63,4126.92,4208.52,4406.4,4703.7300000000005,4644.57,3807.15,4432.41,4527.27,3932.1,3977.4900000000002,4420.68,3571.02
4.0859375,4487.49,4701.18,4121.82,4205.97,4407.42,4706.28,4644.06,3806.13,4433.9400000000005,4527.27,3931.08,3976.4700000000003,4420.17,3573.06
4.09375,4487.49,4701.18,4120.29,4207.5,4406.91,4707.3,4644.57,3807.15,4434.96,4524.72,3931.59,3978.0,4419.66,3573.06
4.1015625,4485.96,4701.18,4125.39,4204.4400000000005,4405.38,4703.22,4645.08,3804.6,4433.9400000000005,4524.72,3933.12,3975.4500000000003,4420.68,3572.04
4.109375,4486.9800000000005,4700.16,4125.39,4199.85,4405.89,4704.24,4645.59,3805.11,4434.96,4526.25,3932.61,3971.88,4422.72,3572.55
4.1171875,4488.51,4698.12,4123.35,4197.81,4406.4,4705.26,4645.08,3806.64,4438.53,4525.2300000000005,3932.1,3969.84,4421.1900000000005,3572.04
4.125,4485.45,4698.63,4123.35,4198.83,4406.4,4702.2,4643.04,3803.58,4437.0,4524.72,3932.61,3968.82,4418.64,3570.0
4.1328125,4484.43,4697.1,4125.9,4203.93,4407.42,4702.2,4644.06,3802.05,4432.41,4524.72,3931.08,3972.39,4420.17,3568.98
4.140625,4491.57,4695.57,4126.41,4203.93,4406.4,4703.22,4644.06,3803.07,4434.45,4523.1900000000005,3931.08,3973.41,4420.68,3570.51
4.1484375,4492.59,4698.12,4124.88,4201.38,4404.87,4706.28,4643.04,3804.09,4435.9800000000005,4523.1900000000005,3932.61,3971.88,4420.68,3572.55
4.15625,4486.9800000000005,4696.08,4125.9,4206.4800000000005,4405.89,4706.79,4643.55,3805.11,4435.9800000000005,4526.76,3933.63,3976.4700000000003,4420.68,3571.53
4.1640625,4487.49,4692.51,4127.9400000000005,4206.4800000000005,4405.89,4705.77,4643.04,3805.11,4436.49,4526.76,3931.59,3976.4700000000003,4419.15,3569.4900000000002
4.171875,4490.04,4698.12,4125.9,4203.93,4405.89,4707.81,4643.04,3805.62,4436.49,4523.1900000000005,3929.55,3970.86,4417.11,3568.98
4.1796875,4489.02,4702.2,4122.33,4208.01,4407.42,4707.81,4641.51,3806.64,4434.96,4524.21,3930.06,3969.84,4419.15,3572.04
4.1875,4489.02,4699.14,4122.33,4207.5,4408.4400000000005,4704.75,4641.0,3806.13,4433.43,4527.27,3931.59,3972.9,4421.7,3574.08
4.1953125,4490.55,4700.67,4126.92,4206.4800000000005,4407.93,4704.75,4641.51,3804.6,4433.43,4524.72,3933.12,3975.4500000000003,4422.72,3570.51
4.203125,4486.9800000000005,4700.67,4127.9400000000005,4210.56,4405.38,4705.77,4642.02,3805.62,4434.45,4521.66,3932.1,3973.41,4422.72,3570.0
4.2109375,4486.47,4697.1,4125.9,4208.01,4404.36,4705.26,4645.59,3805.11,4435.47,4525.2300000000005,3931.59,3968.31,4421.7,3571.53
4.21875,4488.0,4699.65,4127.43,4205.46,4405.38,4703.7300000000005,4646.1,3803.58,4433.43,4527.27,3932.1,3969.33,4421.7,3571.53
4.2265625,4485.96,4702.71,4129.47,4209.03,4406.91,4706.28,4642.02,3805.62,4432.92,4524.72,3931.59,3972.9,4420.68,3570.0
4.234375,4486.47,4700.67,4129.47,4206.4800000000005,4406.4,4708.83,4641.51,3804.6,4432.41,4526.76,3932.61,3968.31,4418.64,3568.98
4.2421875,4489.53,4699.65,4132.02,4204.95,4406.91,4707.3,4643.04,3800.52,4431.39,4529.82,3934.14,3964.23,4420.17,3571.02
4.25,4491.06,4699.14,4131.51,4211.07,4407.42,4705.26,4642.53,3801.03,4432.92,4523.7,3933.63,3968.31,4421.1900000000005,3571.53
4.2578125,4491.57,4698.12,4130.49,4207.5,4405.89,4705.26,4642.02,3802.56,4433.43,4521.15,3933.63,3968.82,4421.1900000000005,3570.51
4.265625,4489.53,4700.67,4132.02,4205.46,4405.89,4705.26,4643.04,3801.54,4433.43,4525.74,3932.61,3964.7400000000002,4420.17,3569.4900000000002
4.2734375,4489.53,4700.67,4132.02,4215.66,4405.89,4704.75,4644.06,3801.03,4435.9800000000005,4525.74,3932.1,3967.29,4419.15,3570.0
4.28125,4492.08,4697.1,4129.9800000000005,4217.1900000000005,4404.36,4705.77,4643.04,3802.56,4435.9800000000005,4522.68,3934.14,3973.41,4422.72,3571.53
4.2890625,4489.02,4699.14,4128.96,4212.09,4404.36,4705.77,4643.04,3805.11,4430.88,4525.74,3933.63,3973.41,4422.21,3572.04
4.296875,4486.47,4703.7300000000005,4128.45,4210.56,4404.36,4705.77,4643.04,3806.64,4430.88,4528.29,3932.61,3974.4300000000003,4418.13,3572.04
4.3046875,4489.02,4702.71,4126.41,4204.95,4405.38,4707.81,4643.04,3806.64,4434.45,4525.74,3933.63,3976.4700000000003,4418.64,3570.0
4.3125,4487.49,4701.6900000000005,4125.39,4200.87,4407.42,4706.79,4644.06,3807.15,4432.41,4524.72,3932.61,3977.4900000000002,4422.72,3567.96
4.3203125,4486.9800000000005,4700.16,4127.9400000000005,4200.87,4406.4,4703.22,4643.04,3805.62,4433.43,4523.7,3933.12,3977.4900000000002,4420.68,3569.4900000000002
4.328125,4492.08,4698.12,4128.45,4198.32,4404.87,4702.71,4643.55,3804.6,4437.0,4523.1900000000005,3934.65,3975.4500000000003,4417.62,3572.04
4.3359375,4492.08,4699.65,4125.39,4196.79,4404.36,4705.26,4643.04,3806.13,4435.9800000000005,4525.2300000000005,3935.16,3974.4300000000003,4420.68,3571.53
4.34375,4490.04,4700.16,4123.35,4201.89,4403.85,4705.26,4642.02,3805.62,4433.43,4527.27,3934.65,3973.41,4420.68,3569.4900000000002
4.3515625,4493.1,4698.63,4123.86,4201.89,4403.85,4705.77,4645.08,3805.11,4433.9400000000005,4526.25,3934.14,3972.9,4420.17,3566.43
4.359375,4491.57,4697.61,4123.35,4197.3,4405.89,4706.79,4647.12,3806.64,4434.45,4523.7,3936.69,3974.94,4422.21,3567.96
4.3671875,4488.51,4700.16,4123.35,4200.36,4408.95,4706.28,4645.59,3805.11,4433.43,4524.21,3933.63,3974.94,4420.17,3574.08
4.375,4491.06,4701.6900000000005,4127.43,4202.91,4407.93,4705.26,4644.06,3803.58,4434.45,4526.25,3929.55,3971.88,4417.11,3573.06
4.3828125,4493.1,4699.14,4128.96,4199.34,4404.87,4706.28,4647.12,3804.09,4437.0,4524.21,3931.08,3970.86,4420.68,3567.96
4.390625,4490.55,4697.1,4128.45,4203.93,4406.91,4705.77,4649.16,3803.07,4437.0,4520.13,3933.12,3972.39,4421.7,3566.94
4.3984375,4488.0,4697.61,4128.45,4209.03,4409.97,4703.7300000000005,4645.08,3804.09,4435.9800000000005,4521.15,3933.12,3973.41,4417.62,3568.98
4.40625,4490.04,4696.59,4123.35,4203.93,4407.93,4705.77,4643.55,3810.21,4434.96,4522.17,3931.59,3975.4500000000003,4420.17,3570.51
4.4140625,4491.57,4696.08,4120.29,4202.4,4406.91,4705.77,4644.06,3808.17,4433.9400000000005,4521.66,3931.59,3975.96,4422.21,3570.51
4.421875,4490.04,4697.1,4122.84,4203.42,4408.4400000000005,4704.75,4642.53,3803.07,4434.96,4523.1900000000005,3934.14,3975.4500000000003,4420.17,3570.0
4.4296875,4486.47,4697.61,4121.31,4203.93,4407.93,4707.81,4642.53,3808.6800000000003,4435.9800000000005,4524.21,3933.63,3978.51,4419.66,3570.0
4.4375,4486.9800000000005,4698.12,4120.29,4204.4400000000005,4406.4,4707.3,4643.04,3812.25,4434.45,4525.2300000000005,3933.12,3977.4900000000002,4420.17,3571.53
4.4453125,4489.53,4698.63,4125.9,4198.83,4407.93,4704.75,4644.06,3804.6,4431.39,4525.74,3934.14,3973.41,4418.13,3571.53
4.453125,4489.53,4698.63,4128.96,4197.81,4408.4400000000005,4706.28,4645.59,3799.5,4432.41,4526.76,3933.63,3975.4500000000003,4417.11,3572.55
4.4609375,4488.51,4695.06,4127.43,4202.91,4406.4,4706.28,4643.55,3802.56,4437.0,4528.8,3931.08,3973.41,4418.64,3572.55
4.46875,4488.0,4692.51,4128.45,4204.95,4406.4,4705.77,4642.53,3801.54,4438.53,4528.29,3932.1,3967.29,4420.17,3571.02
4.4765625,4491.06,4694.55,4128.45,4206.99,4407.42,4705.77,4644.06,3798.48,4434.45,4524.72,3934.14,3967.8,4419.66,3571.53
4.484375,4492.08,4697.1,4126.92,4211.07,4407.42,4705.26,4645.08,3802.56,4433.43,4524.21,3932.61,3969.84,4419.66,3570.0
4.4921875,4487.49,4696.08,4128.96,4214.13,4407.93,4704.24,4645.08,3805.11,4434.96,4524.72,3930.57,3970.86,4421.7,3568.98
4.5,4486.47,4695.57,4128.45,4213.62,4407.93,4703.22,4643.55,3807.15,4434.96,4524.21,3932.1,3973.92,4421.1900000000005,3569.4900000000002
4.5078125,4489.53,4698.63,4123.86,4213.11,4406.4,4704.24,4643.55,3806.64,4434.45,4524.21,3931.59,3976.4700000000003,4418.64,3567.4500000000003
4.515625,4490.04,4698.12,4124.37,4212.6,4405.89,4705.26,4644.06,3801.54,4431.9,4525.2300000000005,3930.57,3974.4300000000003,4419.15,3568.4700000000003
4.5234375,4489.02,4697.61,4126.41,4213.62,4406.91,4703.22,4643.55,3803.07,4432.92,4527.27,3933.12,3972.39,4421.7,3573.06
4.53125,4489.02,4699.14,4125.9,4213.62,4406.4,4702.71,4643.55,3805.62,4436.49,4526.25,3933.63,3971.88,4420.68,3571.02
4.5390625,4486.9800000000005,4698.12,4126.92,4208.52,4404.36,4703.7300000000005,4644.06,3802.56,4435.9800000000005,4524.72,3933.63,3969.84,4420.17,3569.4900000000002
4.546875,4484.43,4699.65,4126.92,4206.99,4406.91,4703.22,4644.06,3802.05,4432.41,4524.72,3934.14,3968.82,4418.64,3571.02
4.5546875,4488.51,4700.16,4126.92,4206.4800000000005,4407.93,4703.22,4643.55,3803.58,4432.41,4524.72,3932.61,3969.84,4418.64,3570.51
4.5625,4489.53,4697.1,4127.9400000000005,4201.89,4405.38,4705.77,4643.55,3802.05,4433.9400000000005,4526.25,3932.61,3969.84,4422.21,3571.02
4.5703125,4485.45,4698.12,4127.9400000000005,4200.87,4406.91,4705.77,4643.04,3802.56,4434.45,4528.29,3934.14,3969.84,4421.7,3571.53
4.578125,4486.9800000000005,4700.67,4128.45,4202.4,4405.89,4704.24,4643.55,3803.58,4434.96,4524.72,3933.12,3968.31,4420.68,3571.53
4.5859375,4490.55,4697.61,4130.49,4202.91,4402.32,4705.26,4645.08,3801.03,4435.47,4522.68,3931.08,3966.27,4421.7,3571.53
4.59375,4489.02,4697.61,4128.96,4204.95,4405.38,4704.75,4644.06,3802.05,4433.43,4526.25,3931.59,3969.33,4421.7,3572.04
4.6015625,4490.04,4699.65,4124.37,4205.46,4408.4400000000005,4703.7300000000005,4643.55,3804.6,4432.92,4527.78,3933.63,3972.39,4421.1900000000005,3570.0
4.609375,4493.1,4697.61,4125.39,4202.4,4406.91,4705.77,4645.08,3802.05,4434.45,4526.76,3934.65,3969.84,4420.17,3570.51
4.6171875,4492.59,4698.63,4127.43,4203.93,4405.38,4706.28,4644.06,3801.03,4433.43,4525.74,3935.67,3972.9,4420.17,3572.55
4.625,4492.08,4700.16,4123.86,4211.07,4405.89,4706.79,4643.55,3803.07,4431.9,4524.72,3935.16,3975.4500000000003,4421.7,3571.53
4.6328125,4491.57,4699.14,4122.33,4213.11,4405.89,4709.34,4645.08,3804.09,4434.45,4525.74,3934.14,3973.92,4421.1900000000005,3569.4900000000002
4.640625,4490.04,4700.16,4125.9,4210.05,4404.87,4706.28,4643.55,3804.6,4435.47,4525.2300000000005,3934.14,3977.4900000000002,4419.15,3568.4700000000003
4.6484375,4489.02,4701.6900000000005,4128.45,4209.54,4404.87,4703.7300000000005,4642.53,3807.15,4432.92,4523.7,3932.1,3979.02,4419.66,3570.0
4.65625,4488.51,4701.18,4127.9400000000005,4205.97,4405.89,4705.77,4643.55,3806.13,4432.41,4523.7,3930.06,3972.9,4419.66,3571.02
4.6640625,4489.02,4701.6900000000005,4126.92,4202.91,4407.93,4703.7300000000005,4642.02,3802.56,4432.92,4525.74,3932.1,3969.84,4420.17,3570.0
4.671875,4489.53,4700.16,4126.41,4202.4,4406.91,4701.18,4641.51,3802.56,4432.92,4527.27,3933.12,3967.8,4420.68,3569.4900000000002
4.6796875,4489.53,4698.63,4125.39,4198.32,4406.91,4704.75,4644.57,3802.05,4431.39,4527.78,3933.12,3964.7400000000002,4421.1900000000005,3572.55
4.6875,4490.04,4699.65,4126.41,4198.32,4408.95,4707.3,4643.55,3800.01,4431.9,4524.72,3933.12,3966.27,4421.1900000000005,3572.55
4.6953125,4491.06,4698.63,4126.41,4198.32,4407.93,4706.28,4640.49,3802.05,4434.96,4522.68,3935.16,3967.8,4420.17,3571.02
4.703125,4490.04,4698.12,4125.39,4193.7300000000005,4405.38,4706.79,4643.55,3806.13,4435.9800000000005,4525.2300000000005,3935.67,3967.8,4418.13,3572.04
4.7109375,4490.04,4698.63,4123.35,4200.36,4405.38,4707.3,4646.1,3806.13,4433.9400000000005,4526.25,3934.65,3973.92,4419.15,3571.53
4.71875,4491.57,4694.04,4122.33,4209.03,4405.38,4704.24,4639.47,3807.15,4433.9400000000005,4524.21,3934.14,3980.55,4419.66,3571.53
4.7265625,4492.08,4694.04,4123.86,4205.97,4404.87,4704.75,4638.96,3809.19,4433.9400000000005,4523.7,3932.61,3976.4700000000003,4415.58,3572.55
4.734375,4491.06,4700.16,4126.41,4206.99,4405.89,4706.79,4645.08,3808.17,4434.45,4523.7,3933.12,3972.39,4417.62,3570.51
4.7421875,4490.04,4698.12,4125.39,4207.5,4405.89,4704.75,4643.55,3805.62,4439.04,4524.21,3935.67,3977.4900000000002,4424.76,3570.0
4.75,4489.53,4694.04,4121.31,4202.91,4405.38,4704.75,4642.53,3806.64,4437.51,4527.27,3934.14,3980.55,4421.7,3570.51
4.7578125,4492.08,4696.59,4120.29,4202.4,4406.91,4707.3,4643.04,3810.7200000000003,4432.92,4525.74,3931.08,3978.51,4416.6,3570.0
4.765625,4492.08,4699.14,4122.33,4206.4800000000005,4406.91,4706.79,4642.53,3808.6800000000003,4434.45,4521.66,3931.59,3975.96,4420.68,3570.0
4.7734375,4488.51,4699.65,4123.35,4209.03,4405.89,4704.75,4642.53,3805.11,4437.0,4523.1900000000005,3933.63,3978.51,4423.74,3569.4900000000002
4.78125,4488.0,4700.67,4124.88,4206.4800000000005,4406.91,4703.7300000000005,4642.02,3807.66,4436.49,4525.2300000000005,3933.12,3978.51,4421.7,3570.51
4.7890625,4489.02,4702.71,4125.9,4203.42,4408.4400000000005,4704.75,4644.06,3808.6800000000003,4435.9800000000005,4524.21,3932.61,3973.92,4419.66,3571.02
4.796875,4486.9800000000005,4700.67,4127.9400000000005,4202.4,4406.4,4706.28,4645.08,3804.6,4435.9800000000005,4526.25,3933.12,3972.39,4420.17,3571.02
4.8046875,4487.49,4696.08,4130.49,4203.93,4404.36,4705.26,4644.57,3802.56,4434.96,4527.78,3933.12,3970.86,4420.17,3571.02
4.8125,4490.04,4696.08,4131.0,4205.46,4407.42,4704.24,4644.57,3805.11,4436.49,4524.72,3932.1,3968.82,4417.11,3569.4900000000002
4.8203125,4490.04,4697.1,4129.47,4203.93,4408.4400000000005,4705.26,4646.1,3807.15,4439.55,4525.2300000000005,3932.61,3970.86,4416.09,3567.96
4.828125,4491.06,4695.06,4128.96,4205.46,4405.89,4705.77,4645.59,3805.62,4437.51,4525.2300000000005,3930.57,3973.41,4419.66,3570.0
4.8359375,4492.59,4695.57,4129.47,4210.56,4405.89,4707.3,4643.04,3803.07,4434.45,4523.7,3930.57,3973.92,4421.1900000000005,3570.51
4.84375,4492.59,4700.67,4127.9400000000005,4213.62,4408.4400000000005,4707.3,4643.55,3804.6,4437.0,4524.21,3934.65,3973.92,4419.15,3570.0
4.8515625,4489.53,4700.67,4125.9,4217.1900000000005,4407.93,4706.28,4643.55,3807.15,4438.02,4524.21,3936.1800000000003,3975.96,4419.15,3569.4900000000002
4.859375,4486.9800000000005,4697.1,4125.9,4215.15,4405.38,4708.83,4642.02,3805.11,4433.9400000000005,4523.7,3935.67,3977.4900000000002,4422.21,3569.4900000000002
4.8671875,4485.45,4700.67,4125.39,4209.03,4404.87,4707.81,4642.02,3805.62,4433.43,4524.72,3933.63,3977.4900000000002,4420.68,3571.02
4.875,4485.96,4703.22,4122.33,4205.97,4406.4,4703.7300000000005,4645.08,3807.66,4435.47,4525.74,3932.61,3974.94,4418.64,3573.06
4.8828125,4486.47,4697.61,4122.33,4202.4,4408.4400000000005,4701.6900000000005,4644.06,3805.62,4434.96,4526.76,3934.14,3973.41,4421.7,3571.02
4.890625,4487.49,4695.57,4125.39,4202.4,4406.91,4703.7300000000005,4643.55,3802.56,4434.96,4526.25,3933.12,3976.4700000000003,4421.1900000000005,3567.96
4.8984375,4487.49,4697.61,4127.43,4205.46,4402.83,4706.79,4647.12,3801.03,4437.0,4524.72,3932.61,3974.4300000000003,4416.6,3571.53
4.90625,4486.9800000000005,4696.08,4128.45,4204.4400000000005,4404.87,4707.3,4647.12,3801.54,4437.0,4525.74,3932.61,3967.8,4416.6,3573.57
4.9140625,4488.0,4696.08,4131.0,4204.4400000000005,4408.95,4705.26,4644.06,3803.07,4433.9400000000005,4524.72,3931.08,3969.33,4419.15,3570.0
4.921875,4489.53,4695.57,4133.04,4208.52,4408.4400000000005,4702.71,4643.04,3803.07,4432.92,4523.1900000000005,3931.59,3971.37,4420.17,3570.0
4.9296875,4488.0,4694.04,4131.0,4209.03,4405.89,4703.7300000000005,4645.59,3801.03,4435.47,4524.21,3932.1,3969.33,4420.17,3572.55
4.9375,4486.9800000000005,4697.1,4129.47,4204.4400000000005,4406.4,4704.24,4645.08,3801.03,4435.47,4524.21,3931.59,3969.84,4420.17,3572.04
4.9453125,4490.04,4699.14,4130.49,4204.95,4406.4,4704.24,4644.57,3802.05,4430.88,4523.1900000000005,3932.1,3969.33,4419.66,3567.96
4.953125,4491.57,4696.59,4129.9800000000005,4207.5,4405.38,4705.26,4645.59,3803.58,4432.41,4525.2300000000005,3933.12,3969.33,4419.15,3568.98
4.9609375,4489.02,4697.1,4125.39,4205.97,4404.87,4703.7300000000005,4644.06,3806.13,4435.9800000000005,4526.25,3932.61,3973.92,4419.66,3571.02
4.96875,4488.51,4700.16,4122.33,4205.46,4405.89,4705.77,4643.04,3806.64,4435.47,4524.21,3933.63,3974.94,4421.1900000000005,3569.4900000000002
4.9765625,4488.51,4698.63,4123.35,4204.4400000000005,4406.91,4706.79,4645.08,3806.13,4432.92,4522.17,3936.1800000000003,3972.9,4420.68,3569.4900000000002
4.984375,4489.53,4702.71,4120.29,4205.97,4406.91,4704.24,4645.08,3807.15,4433.9400000000005,4525.2300000000005,3931.08,3979.02,4420.17,3568.4700000000003
4.9921875,4488.0,4701.18,4125.39,4200.87,4407.93,4706.79,4643.04,3806.64,4434.45,4526.76,3931.59,3973.92,4421.1900000000005,3570.0
5.0,4484.43,4701.18,4128.96,4197.3,4407.42,4706.79,4643.55,3804.6,4435.47,4524.21,3933.63,3974.4300000000003,4421.1900000000005,3571.02
5.0078125,4485.96,4702.71,4128.45,4203.42,4404.87,4705.77,4644.06,3801.54,4433.9400000000005,4524.72,3934.14,3975.4500000000003,4420.17,3571.53
5.015625,4489.53,4700.16,4128.96,4203.42,4405.89,4708.32,4645.08,3801.03,4432.92,4525.2300000000005,3933.63,3969.33,4419.66,3575.61
5.0234375,4489.53,4698.12,4128.96,4200.87,4407.42,4707.81,4644.06,3800.01,4434.45,4524.72,3935.16,3964.7400000000002,4420.68,3576.12
5.03125,4490.04,4696.59,4128.45,4203.42,4404.36,4704.24,4642.53,3798.9900000000002,4434.96,4525.74,3934.14,3968.31,4421.1900000000005,3570.51
5.0390625,4491.57,4697.61,4129.47,4205.46,4404.36,4705.26,4645.08,3803.07,4435.47,4523.7,3931.59,3971.37,4420.17,3567.4500000000003
5.046875,4491.57,4700.67,4126.92,4205.97,4408.4400000000005,4706.28,4645.08,3807.66,4435.47,4521.66,3932.61,3972.39,4420.17,3569.4900000000002
5.0546875,4492.59,4700.67,4122.84,4209.03,4404.87,4703.7300000000005,4641.51,3807.66,4435.9800000000005,4526.76,3935.16,3973.41,4421.7,3572.55
5.0625,4488.51,4699.65,4123.35,4212.09,4402.83,4703.22,4642.53,3804.09,4433.9400000000005,4528.8,3932.61,3973.41,4420.17,3571.53
5.0703125,4486.47,4699.65,4124.37,4206.4800000000005,4406.91,4705.77,4645.59,3808.17,4432.92,4525.74,3932.61,3978.0,4419.66,3570.0
5.078125,4491.06,4699.14,4123.35,4200.87,4406.4,4708.32,4644.06,3812.25,4433.9400000000005,4526.76,3934.65,3979.02,4421.1900000000005,3570.51
5.0859375,4489.02,4699.14,4123.86,4202.91,4402.32,4707.3,4642.53,3806.13,4434.45,4530.33,3933.63,3975.4500000000003,4421.1900000000005,3570.51
5.09375,4485.45,4699.14,4123.86,4201.89,4404.36,4703.7300000000005,4643.04,3804.09,4435.47,4528.29,3932.61,3973.92,4421.1900000000005,3571.02
5.1015625,4488.0,4697.61,4122.33,4199.85,4407.93,4702.71,4645.59,3808.6800000000003,4433.9400000000005,4525.2300000000005,3932.1,3973.92,4421.1900000000005,3573.57
5.109375,4490.04,4696.08,4125.39,4201.38,4405.38,4704.24,4646.61,3807.15,4432.92,4527.27,3933.63,3974.94,4421.7,3574.08
5.1171875,4488.51,4696.59,4124.37,4201.89,4405.38,4704.75,4644.06,3803.58,4434.45,4527.27,3934.65,3978.0,4420.17,3570.0
5.125,4489.02,4698.63,4123.35,4201.38,4409.97,4703.22,4641.51,3804.6,4433.9400000000005,4523.7,3932.61,3976.4700000000003,4418.64,3568.98
5.1328125,4491.06,4698.12,4127.43,4201.38,4409.46,4703.7300000000005,4642.02,3806.13,4434.45,4523.7,3931.59,3972.39,4420.68,3571.53
5.140625,4490.04,4695.57,4128.96,4202.4,4406.4,4705.26,4643.04,3805.11,4437.51,4527.78,3932.61,3974.4300000000003,4420.68,3571.53
5.1484375,4488.51,4696.59,4125.39,4203.42,4406.91,4705.77,4643.04,3803.07,4439.04,4527.78,3933.63,3975.4500000000003,4418.64,3571.53
5.15625,4488.51,4698.12,4123.86,4205.97,4408.4400000000005,4704.75,4644.57,3803.58,4437.51,4523.7,3932.61,3970.86,4419.15,3572.55
5.1640625,4488.0,4696.59,4124.88,4212.6,4407.93,4706.28,4646.61,3806.13,4437.51,4523.1900000000005,3931.59,3971.88,4419.66,3573.06
5.171875,4488.0,4696.08,4125.9,4212.09,4406.91,4707.81,4645.59,3805.62,4438.53,4524.21,3931.59,3975.96,4418.64,3573.06
5.1796875,4490.04,4699.14,4125.9,4209.54,4407.42,4706.28,4644.06,3804.09,4434.96,4524.72,3930.57,3975.4500000000003,4419.15,3572.04
5.1875,4491.06,4699.65,4124.88,4214.64,4406.91,4702.71,4644.06,3804.6,4432.92,4526.25,3930.06,3974.94,4419.66,3571.53
5.1953125,4489.02,4699.14,4124.37,4210.05,4405.38,4702.2,4643.04,3805.11,4434.45,4527.27,3931.08,3975.4500000000003,4419.15,3573.06
5.203125,4488.51,4701.6900000000005,4125.9,4203.93,4406.91,4704.75,4641.51,3806.64,4434.96,4526.76,3931.59,3974.94,4420.68,3571.53
5.2109375,4490.55,4702.2,4125.9,4205.46,4408.4400000000005,4704.75,4644.57,3805.62,4432.92,4525.2300000000005,3930.06,3974.94,4419.66,3570.0
5.21875,4489.53,4700.16,4126.92,4204.4400000000005,4406.4,4704.24,4647.63,3798.9900000000002,4432.41,4525.2300000000005,3930.57,3970.35,4417.11,3571.53
5.2265625,4486.9800000000005,4701.18,4129.9800000000005,4203.42,4404.36,4705.77,4647.12,3797.9700000000003,4434.45,4525.74,3933.12,3966.27,4418.64,3571.53
5.234375,4490.04,4700.16,4130.49,4203.93,4405.38,4704.24,4644.06,3804.09,4435.47,4526.76,3933.12,3964.7400000000002,4419.15,3571.53
5.2421875,4491.06,4697.1,4127.9400000000005,4202.91,4406.91,4704.75,4645.08,3804.09,4433.9400000000005,4525.2300000000005,3929.04,3966.27,4417.11,3569.4900000000002
5.25,4489.02,4697.61,4129.47,4204.4400000000005,4406.91,4706.28,4645.59,3800.01,4432.92,4524.21,3930.06,3968.82,4419.66,3567.96
5.2578125,4489.02,4699.65,4128.96,4211.07,4405.89,4705.26,4645.08,3802.56,4435.9800000000005,4526.76,3933.12,3967.8,4422.72,3570.51
5.265625,4490.55,4696.59,4124.37,4211.58,4407.93,4705.26,4643.55,3806.13,4436.49,4526.76,3932.1,3966.78,4420.68,3570.51
5.2734375,4490.04,4694.04,4122.84,4208.01,4409.46,4704.75,4641.0,3808.17,4434.45,4525.2300000000005,3932.1,3971.88,4421.1900000000005,3569.4900000000002
5.28125,4489.53,4697.61,4125.9,4212.09,4406.4,4703.7300000000005,4642.53,3807.66,4432.92,4525.74,3933.12,3975.96,4420.68,3569.4900000000002
5.2890625,4492.59,4700.67,4128.96,4212.09,4406.4,4704.75,4644.06,3804.09,4433.43,4525.74,3932.61,3973.92,4417.62,3571.02
5.296875,4492.59,4701.18,4126.92,4206.99,4408.95,4705.77,4644.57,3801.54,4433.43,4524.72,3930.57,3970.86,4422.21,3571.53
5.3046875,4488.0,4702.2,4125.39,4209.03,4406.91,4704.75,4645.08,3802.56,4432.92,4524.72,3931.08,3969.84,4424.76,3570.51
5.3125,4488.0,4702.71,4129.47,4209.54,4406.4,4704.24,4642.02,3804.6,4433.9400000000005,4525.74,3933.63,3971.88,4420.17,3571.02
5.3203125,4493.1,4700.67,4127.43,4202.91,4409.46,4706.28,4641.51,3804.6,4434.45,4523.7,3934.14,3973.92,4419.15,3572.04
5.328125,4491.57,4700.16,4124.37,4201.89,4407.42,4707.81,4645.08,3807.15,4432.41,4523.1900000000005,3933.63,3974.4300000000003,4421.7,3570.0
5.3359375,4488.0,4701.6900000000005,4127.9400000000005,4203.93,4404.87,4705.77,4645.59,3807.66,4431.9,4527.27,3935.16,3972.9,4422.21,3568.98
5.34375,4489.02,4700.67,4129.9800000000005,4199.34,4405.38,4703.7300000000005,4645.08,3805.62,4433.43,4527.27,3935.16,3970.35,4420.17,3572.04
5.3515625,4489.02,4697.61,4128.45,4197.3,4405.89,4705.77,4646.1,3807.15,4433.9400000000005,4523.7,3931.59,3969.84,4420.17,3571.53
5.359375,4489.02,4698.12,4131.0,4201.38,4406.91,4705.77,4645.59,3807.15,4434.45,4524.72,3930.57,3971.37,4419.66,3567.96
5.3671875,4491.06,4700.67,4130.49,4201.38,4406.91,4704.24,4644.57,3803.07,4433.9400000000005,4527.27,3935.67,3971.37,4417.62,3568.4700000000003
5.375,4491.06,4699.65,4125.39,4200.87,4405.89,4705.77,4645.59,3803.07,4433.9400000000005,4525.74,3935.67,3968.82,4418.13,3569.4900000000002
5.3828125,4490.55,4697.1,4123.86,4202.4,4407.42,4706.28,4644.06,3806.13,4434.96,4525.74,3931.59,3969.33,4420.17,3566.94
5.390625,4492.08,4697.61,4125.39,4203.42,4407.42,4704.24,4642.53,3805.62,4434.96,4526.25,3931.59,3976.98,4421.1900000000005,3565.41
5.3984375,4492.59,4700.67,4124.37,4208.01,4405.38,4705.77,4644.57,3804.09,4434.96,4524.21,3932.1,3982.08,4418.64,3567.96
5.40625,4490.55,4702.71,4122.33,4211.07,4403.85,4707.3,4645.59,3807.15,4436.49,4523.1900000000005,3930.06,3979.02,4418.13,3570.0
5.4140625,4489.53,4699.65,4121.31,4208.01,4402.83,4703.22,4643.55,3812.25,4437.51,4525.2300000000005,3930.06,3978.0,4420.17,3570.0
5.421875,4490.04,4700.16,4122.84,4206.4800000000005,4405.38,4702.71,4644.06,3809.7000000000003,4434.96,4525.2300000000005,3932.1,3978.0,4420.68,3568.98
5.4296875,4488.51,4701.6900000000005,4123.35,4202.4,4408.4400000000005,4706.79,4645.08,3804.6,4432.92,4524.21,3935.16,3976.4700000000003,4421.1900000000005,3571.53
5.4375,4485.45,4698.12,4123.35,4196.79,4407.93,4705.26,4643.04,3808.17,4434.45,4524.72,3935.16,3976.4700000000003,4421.1900000000005,3573.57
5.4453125,4488.51,4696.59,4126.92,4195.26,4405.89,4702.2,4641.0,3806.64,4435.47,4525.2300000000005,3933.63,3974.4300000000003,4420.17,3572.04
5.453125,4493.1,4696.59,4128.96,4195.77,4405.38,4702.71,4644.06,3798.9900000000002,4434.96,4524.21,3934.14,3971.37,4419.66,3571.53
5.4609375,4490.04,4695.57,4129.9800000000005,4202.91,4407.42,4706.28,4647.12,3800.52,4435.9800000000005,4525.2300000000005,3932.61,3971.37,4420.68,3570.51
5.46875,4486.9800000000005,4694.04,4131.51,4205.46,4404.87,4703.7300000000005,4642.02,3805.11,4435.9800000000005,4526.76,3933.63,3972.9,4420.17,3571.02
5.4765625,4488.51,4696.59,4123.86,4196.79,4403.34,4703.7300000000005,4641.51,3804.6,4434.45,4526.76,3934.65,3970.86,4418.64,3571.02
5.484375,4487.49,4700.67,4123.35,4203.93,4407.42,4707.81,4647.63,3801.03,4434.96,4524.21,3930.06,3969.84,4418.64,3565.41
5.4921875,4486.47,4698.63,4131.51,4210.05,4408.95,4705.77,4644.57,3800.52,4435.47,4522.68,3929.55,3971.88,4419.66,3565.92
5.5,4490.04,4698.12,4126.41,4203.42,4406.4,4704.24,4643.04,3802.56,4432.92,4525.2300000000005,3930.57,3971.37,4418.64,3569.4900000000002
5.5078125,4492.59,4698.63,4122.33,4205.97,4405.38,4705.26,4646.1,3802.05,4435.9800000000005,4526.25,3932.61,3971.37,4419.15,3568.98
5.515625,4488.51,4695.57,4126.92,4205.97,4406.4,4703.22,4645.08,3803.07,4438.53,4525.2300000000005,3935.67,3972.39,4419.66,3568.4700000000003
5.5234375,4486.9800000000005,4697.1,4128.96,4206.4800000000005,4408.4400000000005,4704.75,4644.06,3804.6,4433.9400000000005,4525.2300000000005,3933.12,3971.88,4418.64,3568.4700000000003
5.53125,4490.04,4698.12,4129.9800000000005,4205.46,4405.38,4704.24,4641.0,3802.56,4432.92,4526.76,3936.1800000000003,3970.35,4424.25,3572.55
5.5390625,4489.02,4698.12,4128.45,4202.91,4406.4,4703.22,4645.59,3803.07,4435.47,4526.25,3936.69,3969.33,4423.2300000000005,3573.57
5.546875,4484.43,4702.2,4128.45,4204.95,4409.46,4703.7300000000005,4648.14,3804.09,4433.9400000000005,4524.21,3931.08,3969.33,4418.64,3571.53
5.5546875,4486.47,4701.18,4130.49,4201.89,4405.38,4704.24,4642.02,3802.56,4434.96,4524.21,3929.55,3967.8,4424.25,3572.04
5.5625,4490.04,4699.65,4127.43,4202.91,4405.38,4704.75,4643.55,3800.52,4434.96,4525.2300000000005,3931.59,3968.31,4423.2300000000005,3572.55
5.5703125,4492.59,4698.63,4125.39,4208.52,4407.93,4702.2,4644.57,3801.54,4432.41,4524.72,3935.16,3970.35,4419.15,3571.02
5.578125,4492.59,4698.63,4126.92,4209.54,4406.4,4702.71,4643.04,3804.09,4434.45,4522.68,3935.67,3969.33,4420.17,3570.0
5.5859375,4490.04,4699.14,4127.43,4209.03,4405.89,4706.79,4646.1,3804.09,4435.47,4522.17,3932.61,3970.35,4419.66,3569.4900000000002
5.59375,4489.53,4696.08,4124.88,4208.01,4406.4,4705.77,4645.08,3805.62,4433.43,4523.1900000000005,3932.61,3972.9,4420.17,3570.0
5.6015625,4492.08,4696.59,4122.33,4206.99,4408.4400000000005,4702.71,4642.53,3806.64,4433.9400000000005,4524.72,3934.14,3975.96,4421.7,3570.51
5.609375,4491.06,4701.6900000000005,4122.84,4204.4400000000005,4408.95,4703.7300000000005,4643.55,3805.62,4433.9400000000005,4526.25,3933.12,3978.51,4420.17,3570.0
5.6171875,4487.49,4702.71,4123.35,4200.87,4408.4400000000005,4705.26,4644.57,3806.13,4433.9400000000005,4525.74,3931.59,3975.96,4420.68,3570.51
5.625,4485.45,4699.65,4121.31,4202.4,4405.89,4702.2,4643.55,3807.66,4434.96,4523.1900000000005,3931.59,3972.39,4423.2300000000005,3572.04
5.6328125,4488.0,4701.18,4123.86,4203.93,4405.38,4699.65,4643.04,3807.66,4435.47,4523.7,3933.63,3971.88,4421.7,3571.53
5.640625,4490.55,4702.71,4131.0,4200.87,4407.42,4702.2,4644.06,3803.58,4434.96,4524.21,3935.67,3968.31,4420.17,3571.02
5.6484375,4493.1,4699.14,4128.45,4199.34,4407.42,4703.22,4646.1,3801.54,4434.45,4524.21,3935.16,3966.78,4420.17,3570.0
5.65625,4493.61,4696.59,4123.35,4201.38,4406.91,4703.7300000000005,4644.57,3804.09,4433.9400000000005,4525.2300000000005,3932.61,3968.82,4419.15,3569.4900000000002
5.6640625,4489.02,4696.59,4127.43,4200.87,4406.91,4706.79,4642.02,3804.09,4434.45,4525.74,3933.12,3968.31,4420.68,3570.0
5.671875,4487.49,4698.63,4126.92,4197.81,4406.91,4706.79,4645.08,3801.54,4434.96,4524.72,3935.67,3967.29,4420.17,3570.0
5.6796875,4490.55,4698.12,4120.8,4201.38,4406.4,4705.26,4647.12,3802.05,4435.9800000000005,4522.68,3932.61,3971.37,4418.13,3568.98
5.6875,4490.55,4697.1,4122.33,4205.97,4406.4,4705.26,4644.57,3806.13,4438.02,4522.17,3931.59,3977.4900000000002,4420.68,3569.4900000000002
5.6953125,4489.02,4699.65,4124.37,4201.89,4405.89,4704.75,4642.53,3808.17,4437.51,4525.74,3935.16,3977.4900000000002,4419.66,3571.53
5.703125,4491.57,4699.14,4123.35,4202.4,4404.87,4702.71,4643.55,3807.15,4435.9800000000005,4525.2300000000005,3934.14,3974.4300000000003,4415.58,3570.51
5.7109375,4492.59,4695.06,4125.39,4206.4800000000005,4404.87,4703.22,4643.04,3806.64,4434.45,4520.64,3929.55,3976.98,4419.15,3571.53
5.71875,4489.02,4697.1,4124.88,4206.4800000000005,4405.38,4706.28,4643.04,3809.19,4433.43,4523.1900000000005,3930.06,3979.02,4420.68,3571.02
5.7265625,4488.51,4701.6900000000005,4121.82,4204.4400000000005,4407.42,4706.79,4644.57,3810.21,4435.47,4529.31,3932.61,3976.4700000000003,4417.11,3568.4700000000003
5.734375,4493.1,4702.2,4121.82,4202.4,4408.95,4704.75,4641.0,3806.64,4435.9800000000005,4527.78,3931.59,3972.39,4419.66,3570.51
5.7421875,4491.57,4700.16,4121.31,4204.4400000000005,4406.4,4704.75,4639.9800000000005,3805.11,4432.92,4523.7,3930.06,3975.4500000000003,4423.2300000000005,3571.02
5.75,4487.49,4698.63,4121.31,4204.95,4404.87,4704.24,4642.53,3807.66,4431.9,4523.7,3933.63,3976.98,4421.7,3571.53
5.7578125,4488.51,4698.63,4123.35,4197.81,4408.4400000000005,4703.22,4642.02,3808.6800000000003,4431.39,4525.2300000000005,3934.65,3970.86,4419.66,3571.53
5.765625,4489.02,4701.18,4123.86,4193.7300000000005,4408.4400000000005,4705.26,4642.53,3806.64,4432.41,4526.25,3932.61,3971.88,4419.15,3570.51
5.7734375,4488.0,4697.61,4126.41,4198.32,4403.85,4706.28,4643.04,3803.58,4435.9800000000005,4525.74,3934.65,3976.98,4420.17,3571.02
5.78125,4488.0,4693.53,4127.9400000000005,4198.83,4404.36,4706.79,4642.53,3804.09,4437.51,4524.21,3935.16,3973.92,4420.17,3571.53
5.7890625,4489.53,4695.57,4124.88,4199.85,4407.42,4707.3,4642.02,3806.64,4437.0,4524.72,3932.1,3970.86,4419.15,3570.51
5.796875,4491.06,4695.57,4125.39,4209.03,4405.89,4705.26,4642.02,3806.13,4438.02,4525.74,3931.59,3972.9,4419.15,3570.0
5.8046875,4494.12,4693.53,4128.45,4214.64,4405.89,4704.24,4644.06,3806.64,4436.49,4524.21,3932.1,3973.92,4418.64,3571.53
5.8125,4493.1,4696.59,4128.96,4216.17,4408.4400000000005,4707.3,4644.06,3809.19,4433.9400000000005,4523.7,3929.55,3974.94,4419.15,3569.4900000000002
5.8203125,4489.53,4701.18,4128.45,4219.74,4406.91,4706.28,4643.55,3806.64,4432.92,4525.2300000000005,3930.06,3976.98,4418.64,3569.4900000000002
5.828125,4489.53,4701.6900000000005,4129.9800000000005,4213.62,4406.91,4704.75,4645.59,3804.6,4432.41,4527.27,3931.59,3974.94,4419.15,3571.02
5.8359375,4490.55,4701.18,4128.45,4206.99,4408.95,4707.3,4645.59,3806.13,4433.9400000000005,4526.25,3929.04,3974.4300000000003,4420.68,3571.02
5.84375,4488.0,4701.6900000000005,4126.41,4208.52,4406.91,4706.79,4643.04,3805.11,4434.45,4524.21,3930.06,3975.96,4420.17,3571.53
5.8515625,4488.0,4702.71,4130.49,4206.99,4404.36,4704.24,4642.02,3803.58,4433.9400000000005,4526.76,3934.14,3973.92,4419.15,3571.53
5.859375,4492.08,4703.22,4129.9800000000005,4203.93,4405.89,4705.77,4642.53,3804.09,4435.47,4527.27,3933.63,3972.39,4420.17,3571.02
5.8671875,4491.57,4700.16,4125.9,4206.4800000000005,4406.91,4707.81,4644.57,3804.6,4434.96,4523.7,3933.12,3974.4300000000003,4421.7,3570.51
5.875,4487.49,4697.61,4126.92,4204.95,4404.36,4705.77,4644.57,3804.6,4434.45,4524.72,3933.12,3975.96,4422.72,3570.0
5.8828125,4487.49,4700.16,4129.9800000000005,4202.91,4404.36,4703.7300000000005,4643.04,3802.05,4436.49,4525.74,3931.59,3975.96,4422.72,3569.4900000000002
5.890625,4490.55,4700.67,4128.96,4203.93,4404.87,4704.24,4644.06,3801.54,4437.0,4523.1900000000005,3932.1,3970.86,4422.21,3572.55
5.8984375,4491.57,4696.08,4128.45,4204.95,4406.4,4704.24,4646.1,3803.58,4436.49,4525.2300000000005,3931.08,3966.78,4419.15,3572.55
5.90625,4489.02,4696.08,4134.06,4209.03,4409.46,4705.26,4643.04,3802.05,4436.49,4527.78,3931.08,3969.84,4417.62,3568.98
5.9140625,4488.51,4699.65,4135.59,4212.6,4408.4400000000005,4706.28,4641.51,3800.52,4435.9800000000005,4525.2300000000005,3934.14,3970.86,4419.66,3570.51
5.921875,4490.04,4700.67,4129.47,4210.56,4404.87,4706.28,4645.08,3805.11,4434.45,4525.2300000000005,3935.16,3969.84,4421.1900000000005,3574.59
5.9296875,4491.57,4699.65,4127.9400000000005,4209.54,4403.34,4705.77,4645.08,3805.11,4434.96,4526.25,3932.61,3973.92,4421.1900000000005,3573.06
5.9375,4491.57,4699.65,4126.92,4211.58,4404.36,4705.26,4644.57,3803.07,4436.49,4525.74,3932.1,3974.4300000000003,4421.1900000000005,3568.4700000000003
5.9453125,4489.02,4703.22,4119.78,4211.58,4407.42,4704.75,4645.59,3807.15,4435.47,4526.76,3931.59,3972.9,4420.17,3568.4700000000003
5.953125,4488.0,4702.71,4121.31,4209.03,4406.4,4703.22,4643.04,3811.23,4433.43,4526.25,3932.61,3977.4900000000002,4420.17,3572.55
5.9609375,4490.55,4699.14,4128.45,4208.01,4404.87,4703.22,4644.06,3806.13,4433.9400000000005,4524.72,3933.63,3979.02,4419.66,3569.4900000000002
5.96875,4491.06,4700.67,4128.96,4202.91,4406.91,4704.75,4645.59,3800.52,4435.9800000000005,4525.2300000000005,3933.12,3975.96,4417.62,3565.92
5.9765625,4488.51,4703.22,4127.43,4197.81,4407.42,4707.81,4645.08,3802.56,4433.43,4526.76,3932.1,3973.41,4418.64,3568.98
5.984375,4489.53,4698.63,4129.9800000000005,4198.83,4405.89,4704.24,4645.59,3801.54,4435.47,4525.2300000000005,3931.59,3968.31,4420.68,3572.55
5.9921875,4487.49,4698.63,4129.9800000000005,4197.81,4407.42,4703.22,4643.55,3802.05,4436.49,4523.1900000000005,3933.12,3969.84,4420.17,3568.98
6.0,4488.0,4697.61,4131.0,4199.34,4405.38,4704.24,4642.53,3803.07,4433.9400000000005,4522.17,3936.69,3970.35,4420.68,3566.94
6.0078125,4490.55,4697.1,4129.9800000000005,4198.32,4405.89,4705.77,4643.55,3803.58,4433.9400000000005,4525.2300000000005,3937.2000000000003,3968.82,4420.17,3568.4700000000003
6.015625,4491.06,4697.61,4127.43,4202.91,4408.95,4706.28,4644.06,3805.62,4434.45,4526.76,3934.14,3971.88,4419.66,3568.98
6.0234375,4490.55,4697.1,4124.88,4209.54,4407.93,4704.75,4644.06,3804.09,4433.43,4523.7,3932.61,3973.92,4420.17,3567.4500000000003
6.03125,4488.51,4699.14,4123.86,4210.05,4408.95,4705.26,4643.55,3804.09,4435.47,4522.68,3932.1,3973.41,4420.68,3568.98
6.0390625,4487.49,4701.6900000000005,4122.33,4206.4800000000005,4410.99,4707.3,4642.02,3809.7000000000003,4436.49,4525.74,3932.1,3975.96,4421.1900000000005,3571.02
6.046875,4488.0,4698.63,4120.29,4201.38,4406.91,4706.28,4642.53,3810.21,4433.9400000000005,4526.25,3933.12,3978.51,4420.17,3570.0
6.0546875,4488.51,4697.61,4122.33,4199.34,4404.36,4703.22,4644.57,3808.17,4434.45,4524.21,3933.12,3978.0,4417.11,3568.4700000000003
6.0625,4489.02,4699.65,4123.35,4202.4,4406.91,4704.75,4644.06,3811.7400000000002,4436.49,4525.2300000000005,3933.12,3976.98,4419.15,3571.02
6.0703125,4489.02,4698.63,4121.31,4203.42,4406.4,4707.81,4642.02,3809.7000000000003,4435.9800000000005,4527.27,3932.61,3973.92,4424.25,3571.53
6.078125,4486.9800000000005,4699.14,4123.86,4208.01,4404.87,4705.77,4643.55,3803.07,4438.02,4527.27,3931.08,3971.88,4423.2300000000005,3569.4900000000002
6.0859375,4485.45,4702.2,4124.88,4209.54,4405.89,4703.22,4645.59,3803.07,4438.53,4524.72,3931.08,3973.41,4419.15,3570.51
6.09375,4487.49,4698.12,4123.35,4202.4,4407.42,4703.7300000000005,4644.06,3805.11,4434.96,4523.7,3932.61,3973.41,4419.66,3572.55
6.1015625,4488.0,4694.04,4124.88,4200.87,4406.91,4705.77,4642.53,3802.56,4432.92,4525.74,3933.63,3971.88,4422.72,3571.02
6.109375,4485.96,4697.61,4126.41,4204.95,4405.89,4705.26,4644.06,3803.58,4434.96,4527.78,3935.67,3970.86,4422.21,3569.4900000000002
6.1171875,4485.45,4697.1,4126.41,4203.93,4407.42,4702.71,4644.06,3804.09,4438.53,4526.25,3933.63,3971.37,4419.15,3570.0
6.125,4489.02,4693.53,4126.92,4200.36,4407.42,4704.24,4643.55,3803.07,4440.57,4523.7,3932.1,3970.86,4419.66,3570.51
6.1328125,4491.57,4694.55,4126.41,4204.95,4406.4,4707.3,4644.57,3804.09,4439.55,4525.2300000000005,3934.14,3971.88,4420.68,3570.0
6.140625,4489.53,4696.59,4125.39,4208.52,4404.87,4705.26,4643.55,3804.6,4437.51,4528.29,3934.65,3971.37,4418.64,3570.0
6.1484375,4487.49,4697.1,4123.86,4205.97,4404.87,4704.24,4644.57,3807.15,4438.02,4527.78,3931.59,3969.84,4418.13,3571.53
6.15625,4488.51,4698.12,4120.8,4206.99,4406.91,4707.3,4647.63,3808.6800000000003,4438.02,4526.25,3931.08,3974.4300000000003,4420.17,3574.08
6.1640625,4490.04,4698.12,4121.31,4210.56,4405.89,4706.79,4647.12,3806.64,4437.0,4526.76,3935.16,3980.55,4419.15,3573.57
6.171875,4488.51,4697.1,4123.86,4212.09,4404.36,4704.75,4644.06,3807.66,4434.96,4526.76,3934.14,3979.02,4419.15,3571.02
6.1796875,4488.0,4699.14,4123.86,4204.95,4405.89,4705.77,4644.06,3808.17,4431.9,4526.25,3930.57,3973.92,4419.66,3573.06
6.1875,4489.53,4698.12,4124.88,4195.26,4407.93,4707.3,4644.57,3804.09,4432.92,4526.76,3931.59,3972.9,4419.66,3574.08
6.1953125,4488.51,4699.14,4127.9400000000005,4202.4,4407.42,4706.79,4646.1,3802.05,4435.47,4527.27,3932.1,3973.41,4420.68,3571.53
6.203125,4486.9800000000005,4700.16,4128.96,4210.05,4405.89,4702.2,4645.08,3802.56,4434.96,4525.74,3928.53,3969.84,4420.17,3572.55
6.2109375,4486.9800000000005,4697.1,4128.96,4202.4,4405.89,4699.65,4643.04,3802.05,4434.45,4524.72,3929.04,3967.8,4419.15,3573.57
6.21875,4488.0,4697.61,4132.02,4202.91,4406.4,4703.22,4642.53,3803.58,4435.9800000000005,4526.25,3931.59,3969.84,4421.1900000000005,3570.0
6.2265625,4488.51,4700.16,4133.55,4214.13,4406.4,4704.75,4641.51,3803.07,4438.02,4526.76,3931.59,3970.86,4421.7,3570.51
6.234375,4489.02,4697.61,4128.96,4212.09,4405.89,4703.22,4642.53,3800.52,4436.49,4526.25,3930.06,3967.29,4417.62,3573.06
6.2421875,4492.08,4696.59,4126.92,4205.97,4406.91,4700.16,4644.57,3800.52,4434.96,4526.25,3930.06,3967.8,4418.64,3572.04
6.25,4492.59,4698.63,4127.9400000000005,4210.56,4408.4400000000005,4702.71,4645.08,3801.54,4437.0,4525.74,3932.1,3969.33,4421.7,3570.51
6.2578125,4489.02,4699.14,4128.96,4212.6,4407.93,4707.81,4646.1,3802.05,4439.55,4525.2300000000005,3933.63,3965.76,4420.68,3569.4900000000002
6.265625,4488.0,4699.65,4130.49,4211.07,4407.42,4705.26,4644.57,3802.56,4437.0,4525.74,3931.08,3964.7400000000002,4419.15,3570.51
6.2734375,4491.06,4700.67,4128.96,4211.58,4406.4,4704.24,4644.06,3802.56,4432.92,4525.74,3929.55,3969.84,4417.11,3571.53
6.28125,4493.1,4700.67,4126.41,4207.5,4406.4,4707.3,4643.55,3804.6,4433.43,4524.72,3932.61,3972.39,4418.64,3573.06
6.2890625,4490.55,4701.6900000000005,4125.9,4205.46,4406.91,4706.79,4642.53,3807.66,4433.9400000000005,4525.74,3931.59,3971.37,4422.72,3573.06
6.296875,4489.02,4702.71,4127.43,4208.01,4404.36,4704.75,4642.53,3807.66,4433.9400000000005,4524.72,3930.57,3973.41,4420.17,3570.51
6.3046875,4488.51,4702.71,4127.9400000000005,4201.89,4404.87,4705.26,4643.55,3806.13,4433.43,4522.68,3933.63,3973.41,4418.64,3570.51
6.3125,4489.53,4701.6900000000005,4124.88,4198.83,4406.91,4706.28,4645.08,3804.09,4433.43,4524.72,3934.14,3970.35,4422.72,3572.04
6.3203125,4490.04,4699.14,4124.88,4202.4,4404.87,4705.77,4644.06,3803.07,4434.96,4526.76,3932.61,3971.37,4423.2300000000005,3571.02
6.328125,4490.04,4700.16,4129.47,4200.36,4403.34,4703.7300000000005,4641.51,3802.05,4437.51,4524.72,3932.1,3972.39,4418.64,3571.02
6.3359375,4491.06,4701.18,4129.47,4199.85,4406.91,4703.7300000000005,4642.53,3800.52,4438.02,4523.7,3933.63,3970.35,4419.15,3571.02
6.34375,4492.59,4698.12,4127.43,4202.91,4407.42,4705.26,4644.06,3802.05,4436.49,4525.2300000000005,3933.63,3968.82,4422.72,3566.94
6.3515625,4492.59,4698.12,4127.9400000000005,4204.4400000000005,4404.87,4704.24,4642.53,3806.13,4436.49,4524.72,3932.1,3970.35,4419.15,3566.94
6.359375,4492.08,4701.18,4127.9400000000005,4208.01,4405.38,4705.26,4643.55,3807.15,4436.49,4523.7,3932.1,3973.41,4416.6,3569.4900000000002
6.3671875,4493.1,4699.14,4127.43,4210.56,4407.93,4707.3,4644.57,3805.11,4435.9800000000005,4523.7,3934.14,3975.4500000000003,4420.17,3567.4500000000003
6.375,4491.57,4699.14,4126.41,4206.4800000000005,4406.91,4703.7300000000005,4644.06,3806.13,4434.45,4524.21,3934.14,3974.4300000000003,4420.68,3565.92
6.3828125,4489.53,4703.22,4125.39,4203.93,4406.4,4703.22,4644.57,3809.19,4433.9400000000005,4523.7,3933.63,3972.9,4419.66,3570.0
6.390625,4491.57,4703.7300000000005,4124.37,4209.03,4405.38,4706.79,4644.06,3809.19,4434.45,4523.7,3932.61,3972.9,4421.1900000000005,3573.06
6.3984375,4492.59,4701.18,4123.86,4207.5,4405.38,4706.79,4643.04,3806.64,4433.9400000000005,4526.25,3933.12,3973.92,4421.7,3570.51
6.40625,4491.57,4701.18,4124.37,4199.85,4407.93,4704.24,4644.57,3806.13,4433.9400000000005,4526.76,3935.16,3975.96,4419.66,3569.4900000000002
6.4140625,4491.06,4701.18,4126.41,4199.85,4407.42,4705.26,4646.61,3806.64,4435.47,4524.21,3933.63,3975.96,4419.66,3571.02
6.421875,4490.55,4699.14,4127.43,4201.89,4404.87,4707.81,4643.55,3806.64,4435.47,4522.68,3931.59,3976.4700000000003,4420.17,3570.51
6.4296875,4490.55,4695.57,4124.88,4198.83,4405.89,4706.79,4641.0,3806.13,4433.43,4525.74,3934.65,3976.4700000000003,4419.66,3570.51
6.4375,4489.02,4694.55,4125.39,4199.34,4406.4,4704.75,4642.53,3806.64,4434.96,4526.25,3936.69,3973.92,4418.64,3572.55
6.4453125,4490.04,4697.1,4125.9,4201.89,4403.85,4703.7300000000005,4643.55,3807.15,4438.53,4524.72,3935.16,3972.39,4419.15,3573.06
6.453125,4492.59,4697.61,4125.39,4204.4400000000005,4405.89,4704.75,4645.08,3805.11,4438.02,4524.72,3931.08,3971.88,4418.13,3570.0
6.4609375,4490.04,4695.06,4127.9400000000005,4209.54,4407.42,4704.75,4644.06,3803.58,4435.47,4525.74,3930.06,3971.37,4417.11,3568.98
6.46875,4486.9800000000005,4695.06,4127.43,4207.5,4404.36,4704.24,4642.02,3807.15,4436.49,4525.74,3930.57,3972.39,4419.15,3569.4900000000002
6.4765625,4488.51,4696.08,4124.88,4207.5,4406.4,4704.24,4642.02,3807.66,4437.0,4525.2300000000005,3930.06,3973.92,4420.68,3568.4700000000003
6.484375,4492.08,4695.06,4126.41,4210.05,4408.4400000000005,4705.26,4643.04,3803.07,4435.47,4525.74,3931.08,3974.4300000000003,4419.15,3568.98
6.4921875,4490.04,4697.1,4125.39,4205.97,4406.4,4708.32,4643.04,3804.6,4435.9800000000005,4524.72,3930.06,3976.4700000000003,4419.66,3568.98
6.5,4488.51,4699.14,4121.31,4205.97,4405.38,4704.24,4642.02,3810.7200000000003,4435.9800000000005,4524.21,3930.57,3979.02,4420.17,3571.53
6.5078125,4489.53,4699.65,4123.35,4210.05,4405.38,4699.65,4642.53,3809.7000000000003,4433.9400000000005,4524.72,3934.14,3979.02,4420.17,3574.08
6.515625,4487.49,4701.6900000000005,4126.41,4208.52,4406.4,4703.7300000000005,4644.57,3806.13,4432.41,4526.25,3933.63,3975.96,4420.17,3572.04
6.5234375,4486.47,4699.14,4124.88,4203.42,4407.42,4706.28,4645.08,3807.66,4433.9400000000005,4526.76,3931.59,3974.4300000000003,4420.17,3570.51
6.53125,4488.51,4695.06,4127.9400000000005,4201.89,4407.42,4706.28,4646.1,3805.62,4433.9400000000005,4525.2300000000005,3933.63,3973.41,4420.68,3573.06
6.5390625,4488.51,4697.61,4133.04,4203.42,4408.4400000000005,4706.79,4647.12,3800.52,4433.9400000000005,4525.74,3933.12,3970.86,4420.17,3574.08
6.546875,4487.49,4699.65,4130.49,4202.4,4408.95,4704.75,4646.1,3803.07,4434.96,4526.25,3929.55,3967.8,4419.66,3570.0
6.5546875,4489.02,4697.1,4127.9400000000005,4201.89,4406.91,4705.26,4645.08,3802.05,4436.49,4524.72,3932.1,3965.25,4420.68,3567.4500000000003
6.5625,4489.02,4694.04,4131.0,4205.46,4404.36,4707.3,4645.08,3798.48,4434.96,4525.2300000000005,3936.1800000000003,3968.82,4420.68,3570.0
6.5703125,4489.02,4696.08,4129.9800000000005,4211.07,4404.36,4705.77,4644.06,3803.58,4432.92,4525.2300000000005,3932.61,3973.41,4421.1900000000005,3571.02
6.578125,4491.06,4697.61,4124.88,4210.56,4406.91,4703.7300000000005,4642.02,3805.62,4434.45,4524.21,3928.53,3972.9,4423.2300000000005,3567.4500000000003
6.5859375,4491.06,4696.59,4122.84,4206.4800000000005,4407.93,4705.77,4644.57,3801.03,4437.51,4524.72,3930.57,3971.37,4421.7,3567.96
6.59375,4490.04,4699.14,4123.35,4211.07,4406.91,4707.3,4646.61,3802.05,4433.9400000000005,4525.2300000000005,3930.57,3975.4500000000003,4418.64,3570.0
6.6015625,4489.02,4702.71,4124.88,4209.03,4405.89,4705.26,4642.53,3805.11,4430.37,4523.7,3930.06,3975.4500000000003,4419.15,3570.51
6.609375,4490.55,4701.6900000000005,4125.39,4201.89,4408.4400000000005,4703.7300000000005,4642.53,3803.07,4432.92,4523.7,3932.61,3970.86,4419.15,3570.0
6.6171875,4490.04,4701.18,4125.9,4208.01,4410.99,4704.24,4644.57,3803.07,4434.96,4526.25,3932.61,3972.39,4418.13,3570.0
6.625,4490.04,4702.2,4127.43,4211.58,4409.46,4703.7300000000005,4643.55,3806.64,4434.45,4526.76,3930.06,3973.41,4421.1900000000005,3572.04
6.6328125,4490.04,4702.2,4127.43,4208.01,4409.46,4702.71,4644.57,3806.64,4434.45,4525.2300000000005,3931.08,3968.82,4420.68,3573.06
6.640625,4489.02,4700.16,4125.9,4208.01,4410.4800000000005,4703.22,4644.57,3804.09,4433.9400000000005,4522.68,3933.12,3967.8,4418.13,3570.51
6.6484375,4489.53,4699.65,4127.9400000000005,4205.97,4408.95,4704.75,4642.02,3803.58,4433.43,4523.7,3933.12,3970.35,4421.7,3571.02
6.65625,4488.51,4701.18,4130.49,4199.85,4406.91,4703.22,4642.53,3805.11,4433.43,4525.74,3933.12,3970.35,4421.7,3571.53
6.6640625,4488.0,4699.65,4128.96,4197.3,4406.91,4702.71,4643.04,3804.09,4433.9400000000005,4523.1900000000005,3935.16,3969.84,4420.17,3569.4900000000002
6.671875,4491.06,4696.59,4127.43,4197.81,4406.4,4703.22,4644.57,3801.54,4432.41,4523.1900000000005,3935.16,3968.82,4420.68,3571.02
6.6796875,4492.59,4698.12,4127.9400000000005,4198.83,4404.36,4703.7300000000005,4645.08,3803.58,4431.9,4526.76,3934.14,3968.82,4420.68,3572.55
6.6875,4491.06,4698.12,4127.43,4201.89,4405.89,4703.7300000000005,4641.51,3806.13,4434.96,4525.74,3932.61,3972.39,4419.15,3570.0
6.6953125,4491.57,4695.06,4127.9400000000005,4204.4400000000005,4408.95,4703.7300000000005,4642.02,3806.13,4435.9800000000005,4523.7,3931.59,3974.94,4418.13,3568.98
6.703125,4495.65,4695.06,4125.39,4206.4800000000005,4406.4,4704.24,4644.06,3808.17,4434.96,4523.7,3932.1,3978.51,4417.62,3571.02
6.7109375,4492.08,4697.1,4121.31,4210.05,4403.85,4705.77,4643.04,3810.7200000000003,4434.45,4523.7,3932.1,3980.04,4418.13,3571.02
6.71875,4486.47,4697.61,4122.84,4212.6,4406.91,4704.75,4642.53,3810.7200000000003,4434.45,4526.25,3931.08,3979.02,4421.7,3571.02
6.7265625,4489.02,4698.63,4123.86,4211.58,4407.42,4701.6900000000005,4642.53,3809.19,4433.9400000000005,4529.82,3931.08,3978.51,4421.7,3572.55
6.734375,4491.57,4698.63,4120.8,4206.99,4406.4,4703.7300000000005,4643.04,3809.19,4433.43,4526.76,3930.06,3976.98,4419.15,3573.57
6.7421875,4489.53,4698.63,4122.33,4199.85,4407.42,4704.24,4645.59,3809.19,4433.43,4524.21,3930.57,3976.4700000000003,4419.66,3572.55
6.75,4488.0,4699.65,4125.39,4197.3,4406.91,4704.24,4645.59,3810.21,4434.96,4526.25,3932.61,3976.98,4422.21,3570.0
6.7578125,4489.53,4700.16,4125.39,4198.83,4404.87,4707.3,4644.06,3808.17,4434.96,4525.2300000000005,3930.57,3972.39,4421.1900000000005,3570.0
6.765625,4490.04,4699.65,4125.39,4195.26,4405.38,4706.28,4644.57,3804.09,4432.41,4523.7,3928.53,3967.8,4417.62,3573.06
6.7734375,4489.02,4698.63,4126.41,4199.34,4406.91,4703.22,4645.08,3803.07,4432.41,4524.21,3931.59,3971.88,4419.66,3572.04
6.78125,4490.04,4697.61,4126.41,4206.4800000000005,4407.93,4703.22,4642.02,3803.07,4433.9400000000005,4523.1900000000005,3933.12,3974.4300000000003,4421.7,3570.51
6.7890625,4493.1,4699.14,4124.37,4203.42,4407.42,4704.75,4641.0,3804.09,4434.96,4524.72,3930.57,3969.33,4419.15,3570.51
6.796875,4492.59,4697.1,4123.35,4204.4400000000005,4405.38,4704.75,4646.61,3805.11,4434.45,4527.27,3932.1,3970.86,4416.09,3570.0
6.8046875,4488.51,4692.51,4124.88,4211.58,4406.91,4703.22,4648.65,3805.11,4435.47,4525.2300000000005,3934.65,3975.96,4416.6,3571.53
6.8125,4487.49,4696.59,4125.39,4208.01,4407.93,4703.22,4644.57,3806.13,4437.0,4523.1900000000005,3932.61,3974.94,4418.64,3572.55
6.8203125,4490.55,4699.65,4123.35,4202.4,4406.4,4704.24,4642.02,3808.6800000000003,4435.47,4524.72,3930.57,3974.4300000000003,4420.68,3571.02
6.828125,4490.55,4695.06,4124.88,4205.97,4406.91,4704.24,4642.53,3807.66,4435.47,4524.21,3933.12,3978.0,4419.15,3571.53
6.8359375,4487.49,4698.12,4126.41,4211.07,4406.4,4704.75,4643.04,3805.11,4436.49,4525.2300000000005,3932.61,3979.53,4416.09,3573.06
6.84375,4485.96,4701.18,4123.35,4210.05,4405.38,4704.75,4641.0,3806.64,4433.9400000000005,4526.25,3930.06,3976.98,4419.66,3572.55
6.8515625,4489.53,4696.08,4123.86,4209.03,4406.4,4701.6900000000005,4641.51,3807.66,4433.43,4523.7,3930.57,3971.88,4419.15,3571.53
6.859375,4490.04,4695.06,4128.45,4209.03,4405.38,4702.71,4642.53,3807.15,4434.96,4524.21,3933.12,3972.39,4416.09,3571.02
6.8671875,4487.49,4700.16,4126.92,4207.5,4402.32,4706.28,4641.0,3808.17,4431.9,4525.74,3932.1,3976.4700000000003,4419.66,3570.51
6.875,4488.0,4700.67,4124.88,4208.01,4404.36,4705.26,4643.04,3806.64,4430.88,4524.21,3931.08,3977.4900000000002,4421.1900000000005,3571.02
