Timestamp,F3,FC5,AF3,F7,T7,P7,O1,O2,P8,T8,F8,AF4,FC6,F4
0.8701579570770264,2283.1578,2404.3644000000004,2093.5449,2125.017,2250.6453,2403.8442,2368.4706,1939.0455000000002,2262.3498000000004,2311.5087,2003.0301000000002,2061.8127,2254.2867,1821.4803000000002
0.9698953628540039,2281.3371,2402.5437,2093.2848000000004,2125.5372,2250.9054,2404.1043,2368.4706,1940.346,2261.0493,2310.4683,2005.1109000000001,2060.7723,2252.9862,1822.5207
0.9787967205047607,2282.8977000000004,2402.5437,2094.8454,2125.7973,2250.3852,2405.1447000000003,2369.5110000000004,1941.3863999999999,2260.5290999999997,2312.8092,2004.0705,2061.5526,2254.8069000000005,1822.5207
0.9877669811248779,2284.1982,2403.324,2094.3252,2125.7973,2250.1251,2404.8846,2369.7711,1940.8662,2262.3498000000004,2312.2889999999998,2003.0301000000002,2060.7723,2254.0266,1820.7
0.9967942237854004,2284.9785,2402.8038,2093.2848000000004,2125.2771000000002,2251.4256,2404.3644000000004,2368.7307,1941.3863999999999,2264.9508,2312.0289000000002,2002.77,2057.1309,2256.3675,1819.6596
1.005819320678711,2284.1982,2402.2835999999998,2093.5449,2125.2771000000002,2251.4256,2404.6245,2367.1701000000003,1940.8662,2264.1705,2313.0693,2003.5503,2057.9112,2256.6276000000003,1819.9197000000001
1.01478910446167,2283.4179,2402.0235000000002,2091.7242,2125.5372,2249.0847000000003,2404.8846,2369.5110000000004,1941.1263000000001,2262.3498000000004,2309.1677999999997,2002.5099000000002,2056.0905000000002,2253.5064,1820.7
1.0237922668457031,2283.6780000000003,2402.8038,2094.3252,2124.4968000000003,2250.1251,2404.3644000000004,2368.7307,1941.3863999999999,2261.8296,2311.2486,2002.2498,2055.5703000000003,2254.0266,1821.2202
1.0328214168548584,2283.6780000000003,2402.0235000000002,2095.1055,2126.0574,2250.1251,2404.3644000000004,2368.7307,1941.3863999999999,2262.3498000000004,2312.8092,2004.3306,2056.3506,2251.9458,1821.7404
1.0418407917022705,2284.1982,2401.5033,2093.805,2127.0978,2249.6049,2404.6245,2369.7711,1942.9470000000001,2264.1705,2310.9885000000004,2004.8508,2058.4314,2252.9862,1821.4803000000002
1.0508182048797607,2284.7184,2403.0639,2094.5852999999997,2124.7569000000003,2250.9054,2404.6245,2368.4706,1942.4268000000002,2262.0897,2311.7688000000003,2002.77,2057.391,2254.5468,1819.9197000000001
1.059797763824463,2283.4179,2403.324,2095.3656,2123.9766,2251.4256,2405.1447000000003,2367.6902999999998,1940.8662,2260.7892,2313.3294,2003.8104,2057.391,2253.2463000000002,1821.2202
1.068854808807373,2283.6780000000003,2402.5437,2094.0651000000003,2124.7569000000003,2250.3852,2403.8442,2369.5110000000004,1940.8662,2263.1301000000003,2312.2889999999998,2003.5503,2058.4314,2256.1074,1820.9601000000002
1.0778357982635498,2283.4179,2402.8038,2095.1055,2126.3175,2250.9054,2403.0639,2368.4706,1939.8258,2261.3094,2313.3294,2003.5503,2058.4314,2255.3271,1819.9197000000001
1.086768388748169,2285.7588,2401.7634000000003,2095.1055,2125.7973,2251.1655,2404.8846,2367.6902999999998,1938.5253000000002,2260.5290999999997,2311.2486,2003.0301000000002,2057.9112,2253.2463000000002,1821.2202
1.095764398574829,2285.2385999999997,2401.7634000000003,2094.8454,2125.2771000000002,2251.1655,2405.1447000000003,2368.7307,1939.8258,2261.3094,2309.688,2004.0705,2057.6511,2255.067,1821.4803000000002
1.1047887802124023,2284.4583,2403.324,2095.6257,2125.017,2250.9054,2403.324,2367.9504,1940.346,2261.0493,2310.9885000000004,2004.5907000000002,2057.9112,2256.3675,1820.4399
1.1138505935668945,2285.4987,2403.0639,2094.0651000000003,2126.0574,2250.1251,2403.8442,2368.2105,1940.346,2262.3498000000004,2310.2082,2004.3306,2056.0905000000002,2255.3271,1820.9601000000002
1.1227447986602783,2286.5391,2402.5437,2093.2848000000004,2127.3579,2250.3852,2405.925,2369.7711,1941.1263000000001,2264.1705,2310.2082,2005.371,2057.1309,2255.3271,1820.9601000000002
1.1318001747131348,2285.4987,2403.324,2094.8454,2125.5372,2251.6857,2403.5841,2367.6902999999998,1941.1263000000001,2262.6099,2310.7284,2004.3306,2055.3102,2253.2463000000002,1820.9601000000002
1.1408722400665283,2284.4583,2402.2835999999998,2094.5852999999997,2126.5776,2250.6453,2403.8442,2367.4302000000002,1941.3863999999999,2262.87,2310.9885000000004,2005.1109000000001,2056.3506,2253.7664999999997,1820.4399
1.1498310565948486,2284.4583,2402.5437,2094.8454,2126.3175,2250.6453,2405.925,2368.7307,1940.346,2262.6099,2311.5087,2003.8104,2054.0097,2254.5468,1820.7
1.1588530540466309,2283.9381000000003,2402.5437,2094.8454,2125.5372,2251.4256,2405.6648999999998,2369.7711,1940.8662,2263.6503,2311.2486,2004.3306,2054.0097,2253.7664999999997,1821.4803000000002
1.1678149700164795,2284.1982,2403.0639,2094.8454,2125.2771000000002,2250.9054,2403.5841,2369.2509,1942.1667,2262.3498000000004,2309.9481,2004.0705,2055.0501,2254.0266,1819.9197000000001
1.176870584487915,2283.1578,2403.324,2094.3252,2124.7569000000003,2250.6453,2403.324,2368.9908,1942.1667,2261.3094,2310.7284,2003.0301000000002,2054.79,2255.5872000000004,1818.8793
1.1858241558074951,2285.4987,2402.8038,2095.1055,2125.2771000000002,2250.3852,2404.1043,2368.2105,1939.5657,2262.3498000000004,2312.0289000000002,2004.0705,2056.6107,2255.3271,1820.1798000000001
1.1947238445281982,2285.2385999999997,2403.324,2095.3656,2125.017,2250.1251,2404.3644000000004,2368.9908,1941.6465,2262.6099,2314.3698000000004,2004.5907000000002,2057.1309,2255.5872000000004,1819.9197000000001
1.2038934230804443,2284.1982,2401.7634000000003,2094.5852999999997,2124.7569000000003,2250.6453,2404.3644000000004,2369.7711,1941.9066,2263.6503,2312.8092,2004.3306,2058.4314,2254.8069000000005,1821.7404
1.212911605834961,2283.9381000000003,2402.0235000000002,2094.3252,2125.5372,2250.3852,2403.8442,2370.0312,1941.1263000000001,2264.1705,2309.688,2004.0705,2056.8708,2255.067,1822.0005
1.2218575477600098,2284.1982,2403.0639,2093.805,2124.7569000000003,2250.9054,2404.1043,2369.5110000000004,1941.1263000000001,2264.1705,2309.9481,2003.5503,2057.9112,2255.5872000000004,1821.4803000000002
1.2308509349822998,2285.2385999999997,2402.2835999999998,2093.0247000000004,2123.4564,2252.2059,2404.6245,2368.7307,1940.0859,2264.1705,2312.2889999999998,2003.2902,2057.391,2255.067,1820.7
1.2398183345794678,2284.4583,2401.2432,2093.5449,2125.2771000000002,2251.4256,2403.8442,2369.5110000000004,1941.1263000000001,2263.6503,2312.5491,2003.5503,2056.3506,2255.3271,1820.7
1.2488129138946533,2284.4583,2402.2835999999998,2094.5852999999997,2125.2771000000002,2251.1655,2403.8442,2368.9908,1939.5657,2263.3902000000003,2313.0693,2004.0705,2057.391,2254.8069000000005,1820.7
1.2577476501464844,2284.7184,2402.2835999999998,2094.3252,2125.017,2251.9458,2405.1447000000003,2369.7711,1940.0859,2263.1301000000003,2314.3698000000004,2005.8912,2057.1309,2256.1074,1820.7
1.2667884826660156,2284.4583,2402.5437,2095.3656,2124.7569000000003,2249.8650000000002,2404.8846,2368.4706,1940.0859,2260.7892,2313.3294,2003.5503,2057.391,2255.5872000000004,1821.2202
1.2758474349975586,2284.7184,2402.5437,2095.3656,2124.7569000000003,2249.0847000000003,2404.6245,2367.1701000000003,1940.346,2261.0493,2312.0289000000002,2003.2902,2058.4314,2253.5064,1821.2202
1.2848093509674072,2285.4987,2403.0639,2094.5852999999997,2125.017,2250.3852,2405.4048000000003,2368.2105,1939.8258,2262.0897,2312.5491,2004.0705,2057.6511,2253.5064,1821.4803000000002
1.2937633991241455,2284.7184,2403.324,2093.2848000000004,2125.5372,2250.6453,2405.4048000000003,2371.3317,1939.8258,2262.0897,2313.3294,2001.9897,2055.8304,2253.5064,1821.2202
1.30279541015625,2284.4583,2402.5437,2093.805,2124.7569000000003,2249.8650000000002,2404.6245,2371.0715999999998,1941.1263000000001,2262.87,2312.8092,2002.2498,2057.9112,2253.7664999999997,1820.7
1.3117954730987549,2283.6780000000003,2402.0235000000002,2094.0651000000003,2125.017,2251.1655,2405.6648999999998,2368.2105,1940.346,2261.3094,2312.5491,2004.3306,2054.79,2253.5064,1820.9601000000002
1.3207957744598389,2282.8977000000004,2402.0235000000002,2095.6257,2126.0574,2251.1655,2404.6245,2369.7711,1941.1263000000001,2263.1301000000003,2312.0289000000002,2003.8104,2057.1309,2252.9862,1820.4399
1.3298687934875488,2284.1982,2402.2835999999998,2094.8454,2125.2771000000002,2250.3852,2402.8038,2368.4706,1941.3863999999999,2263.1301000000003,2311.7688000000003,2004.0705,2057.391,2254.8069000000005,1820.4399
1.3388595581054688,2282.8977000000004,2402.2835999999998,2092.7646,2124.2367,2250.3852,2402.5437,2367.6902999999998,1941.1263000000001,2262.6099,2312.5491,2004.8508,2057.391,2255.3271,1821.2202
1.3477871417999268,2282.8977000000004,2402.2835999999998,2094.0651000000003,2123.7165,2251.1655,2403.324,2367.6902999999998,1940.8662,2261.5695,2313.0693,2003.2902,2056.6107,2254.2867,1820.9601000000002
1.356870174407959,2283.9381000000003,2401.7634000000003,2095.3656,2124.7569000000003,2251.6857,2404.8846,2367.9504,1941.3863999999999,2262.0897,2312.8092,2003.2902,2056.3506,2253.5064,1820.9601000000002
1.3658092021942139,2283.9381000000003,2402.8038,2094.0651000000003,2126.8377,2251.1655,2403.8442,2368.2105,1941.3863999999999,2261.8296,2311.5087,2003.5503,2055.3102,2255.3271,1819.3995000000002
1.374793291091919,2282.8977000000004,2403.0639,2094.8454,2125.5372,2250.9054,2404.3644000000004,2368.7307,1940.8662,2261.8296,2310.9885000000004,2005.1109000000001,2055.8304,2255.067,1820.1798000000001
1.3837289810180664,2284.7184,2402.8038,2095.6257,2125.017,2250.9054,2404.6245,2368.4706,1940.346,2262.6099,2311.5087,2004.3306,2057.9112,2254.0266,1821.7404
1.3928534984588623,2285.4987,2402.5437,2094.5852999999997,2126.0574,2251.9458,2404.6245,2368.4706,1941.3863999999999,2261.8296,2312.2889999999998,2002.77,2056.3506,2254.5468,1819.9197000000001
1.4018068313598633,2283.9381000000003,2401.7634000000003,2094.0651000000003,2125.7973,2251.6857,2403.8442,2368.7307,1942.1667,2261.3094,2312.5491,2003.2902,2056.0905000000002,2254.8069000000005,1820.1798000000001
1.4107866287231445,2284.7184,2402.0235000000002,2094.5852999999997,2124.4968000000003,2250.3852,2403.324,2368.4706,1941.1263000000001,2262.0897,2312.2889999999998,2003.0301000000002,2055.5703000000003,2254.5468,1822.2606
1.4198150634765625,2284.9785,2402.5437,2094.3252,2124.4968000000003,2250.6453,2404.1043,2368.2105,1941.9066,2261.8296,2312.8092,2003.8104,2056.0905000000002,2255.8473000000004,1821.4803000000002
1.4288170337677002,2284.1982,2401.7634000000003,2094.5852999999997,2125.5372,2251.1655,2403.324,2368.9908,1939.8258,2262.87,2312.8092,2002.77,2055.0501,2255.3271,1819.3995000000002
1.4377648830413818,2284.9785,2402.5437,2095.3656,2125.017,2250.6453,2404.1043,2369.7711,1941.3863999999999,2262.3498000000004,2313.0693,2003.5503,2057.391,2256.1074,1821.4803000000002
1.4467952251434326,2284.9785,2402.5437,2094.8454,2124.4968000000003,2249.8650000000002,2406.4452,2368.7307,1942.6869000000002,2261.8296,2311.7688000000003,2004.8508,2057.9112,2255.8473000000004,1820.9601000000002
1.4558167457580566,2284.1982,2402.0235000000002,2094.0651000000003,2125.2771000000002,2250.3852,2405.6648999999998,2368.4706,1941.6465,2262.87,2309.688,2004.5907000000002,2056.3506,2255.3271,1820.1798000000001
1.4648284912109375,2285.4987,2403.0639,2094.5852999999997,2125.2771000000002,2251.4256,2404.3644000000004,2369.2509,1939.8258,2262.6099,2311.2486,2003.2902,2056.6107,2255.3271,1821.2202
1.473813772201538,2286.0189,2403.5841,2094.5852999999997,2125.2771000000002,2251.1655,2405.1447000000003,2369.7711,1940.0859,2261.8296,2312.5491,2003.0301000000002,2056.0905000000002,2255.067,1821.2202
1.4828236103057861,2285.2385999999997,2402.2835999999998,2094.8454,2126.8377,2250.9054,2405.6648999999998,2369.2509,1941.9066,2263.1301000000003,2311.5087,2003.5503,2057.1309,2254.5468,1821.2202
1.491790533065796,2283.1578,2402.8038,2094.8454,2125.2771000000002,2250.6453,2404.3644000000004,2370.8115,1940.346,2262.6099,2310.4683,2004.8508,2058.4314,2255.3271,1820.9601000000002
1.5008111000061035,2281.8573,2402.0235000000002,2095.3656,2126.3175,2251.1655,2404.6245,2368.9908,1941.6465,2261.5695,2311.2486,2004.3306,2058.4314,2255.067,1820.9601000000002
1.5098469257354736,2283.9381000000003,2401.5033,2094.5852999999997,2126.3175,2251.4256,2404.1043,2367.9504,1940.8662,2261.3094,2312.0289000000002,2001.4695000000002,2056.3506,2254.0266,1820.9601000000002
1.5188210010528564,2285.7588,2402.2835999999998,2093.0247000000004,2124.4968000000003,2250.6453,2403.5841,2369.2509,1939.8258,2263.6503,2312.0289000000002,2002.5099000000002,2057.9112,2254.5468,1820.9601000000002
1.5278337001800537,2285.4987,2402.5437,2093.805,2124.4968000000003,2250.3852,2403.5841,2368.7307,1940.0859,2263.6503,2310.9885000000004,2002.5099000000002,2057.391,2255.5872000000004,1820.9601000000002
1.5368108749389648,2283.6780000000003,2401.7634000000003,2094.8454,2127.0978,2251.1655,2404.3644000000004,2368.7307,1941.6465,2260.7892,2312.5491,2003.2902,2053.7496,2255.067,1821.7404
1.5458095073699951,2283.6780000000003,2402.5437,2094.3252,2124.2367,2250.9054,2403.5841,2368.4706,1939.5657,2263.1301000000003,2312.0289000000002,2003.0301000000002,2057.1309,2253.2463000000002,1822.0005
1.5548014640808105,2282.3775,2402.8038,2094.5852999999997,2124.2367,2251.1655,2404.1043,2367.6902999999998,1941.1263000000001,2263.1301000000003,2309.1677999999997,2002.77,2056.8708,2254.5468,1820.7
1.5638117790222168,2283.4179,2402.8038,2095.6257,2124.7569000000003,2250.1251,2405.1447000000003,2368.7307,1941.1263000000001,2260.0089000000003,2310.4683,2003.5503,2057.391,2255.3271,1820.4399
1.5727872848510742,2286.279,2403.5841,2095.8858,2125.7973,2250.9054,2405.4048000000003,2368.7307,1940.6061000000002,2260.0089000000003,2314.1097,2004.3306,2056.6107,2255.067,1820.4399
1.5818092823028564,2286.5391,2403.0639,2094.8454,2127.618,2251.4256,2404.3644000000004,2368.4706,1941.1263000000001,2263.1301000000003,2313.3294,2004.3306,2058.6915,2254.8069000000005,1820.7
1.5907623767852783,2284.9785,2402.5437,2094.0651000000003,2126.5776,2250.1251,2404.6245,2368.7307,1940.346,2262.87,2311.7688000000003,2003.2902,2058.9516,2254.2867,1820.1798000000001
1.5998163223266602,2283.4179,2402.5437,2095.1055,2125.017,2250.1251,2404.8846,2368.4706,1941.1263000000001,2262.0897,2312.8092,2004.0705,2057.6511,2254.2867,1820.1798000000001
1.6088190078735352,2284.7184,2401.5033,2094.3252,2127.0978,2250.9054,2405.4048000000003,2371.3317,1940.346,2260.7892,2312.0289000000002,2003.5503,2058.6915,2255.5872000000004,1822.7808
1.6177966594696045,2284.7184,2402.0235000000002,2094.0651000000003,2124.4968000000003,2249.0847000000003,2404.1043,2371.3317,1941.9066,2261.5695,2312.2889999999998,2002.5099000000002,2060.5122,2255.3271,1822.0005
1.626793622970581,2286.279,2402.2835999999998,2094.8454,2123.4564,2250.3852,2403.324,2367.6902999999998,1941.6465,2262.3498000000004,2312.2889999999998,2002.77,2059.7319,2254.0266,1821.2202
1.635788917541504,2285.7588,2401.7634000000003,2093.805,2125.017,2251.9458,2405.1447000000003,2368.4706,1940.6061000000002,2262.6099,2312.5491,2003.2902,2059.2117000000003,2254.2867,1821.4803000000002
1.6448085308074951,2286.0189,2401.5033,2093.5449,2125.017,2250.3852,2405.1447000000003,2370.2913000000003,1940.6061000000002,2261.8296,2312.0289000000002,2003.0301000000002,2060.2521,2254.2867,1821.4803000000002
1.6537370681762695,2287.0593000000003,2402.0235000000002,2094.0651000000003,2124.7569000000003,2249.6049,2403.324,2367.4302000000002,1940.6061000000002,2262.6099,2311.5087,2002.77,2057.6511,2254.0266,1820.4399
1.6627657413482666,2285.7588,2403.0639,2094.5852999999997,2126.3175,2251.1655,2404.8846,2368.7307,1941.3863999999999,2263.1301000000003,2312.2889999999998,2003.0301000000002,2057.9112,2254.2867,1821.2202
1.6718175411224365,2286.0189,2403.5841,2094.3252,2125.7973,2250.9054,2404.1043,2370.0312,1940.8662,2263.6503,2309.1677999999997,2003.2902,2057.6511,2253.2463000000002,1820.7
1.6808226108551025,2286.0189,2403.0639,2094.8454,2124.2367,2250.6453,2403.8442,2368.7307,1941.1263000000001,2263.9104,2310.9885000000004,2003.2902,2058.4314,2253.2463000000002,1819.6596
1.68979811668396,2286.5391,2402.0235000000002,2094.8454,2123.7165,2249.8650000000002,2403.324,2368.9908,1941.3863999999999,2262.3498000000004,2311.2486,2003.5503,2058.4314,2254.0266,1819.9197000000001
1.6987810134887695,2287.0593000000003,2401.7634000000003,2094.5852999999997,2125.7973,2249.8650000000002,2403.8442,2369.7711,1941.6465,2261.3094,2308.6476000000002,2006.1513,2058.6915,2255.067,1821.2202
1.7078204154968262,2287.3194000000003,2403.0639,2095.1055,2126.0574,2250.6453,2404.8846,2368.2105,1940.8662,2260.7892,2310.4683,2003.8104,2057.391,2256.1074,1821.2202
1.7167658805847168,2285.7588,2403.0639,2095.1055,2124.2367,2251.1655,2404.6245,2368.2105,1940.6061000000002,2262.3498000000004,2314.1097,2002.2498,2056.0905000000002,2255.3271,1821.2202
1.7258098125457764,2285.2385999999997,2402.5437,2093.5449,2124.2367,2250.3852,2404.1043,2368.4706,1938.5253000000002,2261.0493,2309.9481,2004.3306,2057.391,2254.2867,1820.9601000000002
1.7347626686096191,2285.4987,2402.8038,2093.5449,2125.7973,2250.9054,2404.1043,2369.2509,1940.346,2261.8296,2309.9481,2003.8104,2055.8304,2255.5872000000004,1820.9601000000002
1.7438147068023682,2285.4987,2401.7634000000003,2094.5852999999997,2125.5372,2251.4256,2403.8442,2368.4706,1940.0859,2263.9104,2311.2486,2003.5503,2057.391,2255.3271,1822.2606
1.7528085708618164,2286.0189,2401.7634000000003,2094.0651000000003,2124.7569000000003,2250.3852,2403.8442,2367.9504,1939.3056,2263.1301000000003,2312.5491,2002.77,2058.6915,2255.3271,1822.0005
1.7617576122283936,2285.4987,2403.5841,2094.5852999999997,2125.5372,2250.1251,2403.8442,2368.7307,1941.6465,2262.6099,2311.7688000000003,2003.0301000000002,2060.5122,2254.8069000000005,1820.4399
1.770822525024414,2284.9785,2404.1043,2095.6257,2125.7973,2250.9054,2404.3644000000004,2367.9504,1941.9066,2262.6099,2311.2486,2002.2498,2059.4718000000003,2254.5468,1820.1798000000001
1.7797586917877197,2285.7588,2402.0235000000002,2095.3656,2125.5372,2250.9054,2404.3644000000004,2367.4302000000002,1941.3863999999999,2263.6503,2312.0289000000002,2002.2498,2058.1713,2255.5872000000004,1821.2202
1.7888190746307373,2283.6780000000003,2403.5841,2093.5449,2126.5776,2250.6453,2403.5841,2369.2509,1941.6465,2261.5695,2312.5491,2003.5503,2057.6511,2253.5064,1820.9601000000002
1.7977957725524902,2284.1982,2402.0235000000002,2094.3252,2125.017,2250.1251,2403.5841,2369.5110000000004,1941.6465,2262.87,2312.8092,2004.8508,2059.992,2254.2867,1821.4803000000002
1.8067584037780762,2287.5795,2401.2432,2095.3656,2124.2367,2250.9054,2403.8442,2368.7307,1940.346,2263.1301000000003,2312.5491,2003.0301000000002,2059.4718000000003,2254.8069000000005,1820.9601000000002
1.8247392177581787,2285.4987,2402.8038,2094.0651000000003,2123.4564,2250.9054,2403.324,2368.7307,1942.1667,2261.8296,2312.8092,2003.8104,2058.4314,2254.2867,1822.0005
1.8337695598602295,2285.2385999999997,2402.5437,2095.3656,2123.4564,2248.0443,2403.0639,2368.7307,1942.9470000000001,2262.6099,2311.5087,2003.5503,2058.9516,2255.5872000000004,1822.0005
1.842740535736084,2286.5391,2403.324,2094.8454,2126.5776,2250.6453,2404.6245,2368.4706,1940.0859,2261.5695,2311.7688000000003,2002.2498,2058.9516,2254.2867,1821.4803000000002
1.851747989654541,2286.7992,2403.5841,2094.0651000000003,2125.2771000000002,2251.1655,2404.1043,2368.9908,1940.0859,2262.6099,2310.4683,2002.77,2057.6511,2255.3271,1820.1798000000001
1.8607428073883057,2285.2385999999997,2402.0235000000002,2093.805,2124.2367,2251.1655,2403.5841,2368.7307,1940.6061000000002,2262.87,2310.7284,2002.77,2057.1309,2255.5872000000004,1820.7
1.869744062423706,2285.4987,2401.5033,2093.805,2124.2367,2251.1655,2405.1447000000003,2368.4706,1940.6061000000002,2261.5695,2311.2486,2001.7296000000001,2053.4895,2253.5064,1822.0005
1.8787758350372314,2285.7588,2403.324,2095.1055,2124.4968000000003,2250.3852,2405.4048000000003,2368.7307,1941.6465,2261.5695,2311.7688000000003,2002.77,2054.5299,2252.9862,1822.2606
1.8877484798431396,2285.4987,2403.8442,2096.6661,2125.2771000000002,2251.1655,2404.8846,2368.9908,1940.8662,2262.0897,2311.5087,2003.5503,2057.391,2253.7664999999997,1820.4399
1.8967194557189941,2284.9785,2403.0639,2096.1459,2125.5372,2251.6857,2405.4048000000003,2370.2913000000003,1941.3863999999999,2263.3902000000003,2310.7284,2004.0705,2056.6107,2254.0266,1820.4399
1.9057435989379883,2286.279,2403.324,2094.3252,2123.9766,2249.3448000000003,2402.5437,2369.2509,1939.3056,2260.5290999999997,2312.2889999999998,2004.0705,2059.4718000000003,2254.5468,1820.9601000000002
1.9147624969482422,2284.4583,2401.7634000000003,2092.7646,2125.7973,2250.6453,2404.1043,2370.2913000000003,1940.0859,2261.5695,2313.5895,2004.3306,2059.2117000000003,2254.2867,1820.7
1.923746109008789,2284.9785,2401.5033,2093.805,2125.7973,2249.8650000000002,2404.1043,2369.2509,1941.3863999999999,2262.3498000000004,2312.8092,2003.8104,2056.6107,2254.5468,1821.2202
1.932741641998291,2286.279,2402.8038,2095.1055,2125.7973,2249.6049,2402.5437,2367.6902999999998,1941.3863999999999,2261.5695,2310.9885000000004,2003.5503,2055.3102,2255.8473000000004,1822.2606
1.9417822360992432,2285.2385999999997,2403.0639,2094.5852999999997,2125.5372,2250.9054,2404.1043,2368.7307,1940.346,2262.0897,2310.9885000000004,2005.1109000000001,2058.1713,2255.8473000000004,1821.7404
1.9507386684417725,2285.2385999999997,2402.2835999999998,2094.3252,2123.9766,2250.3852,2405.4048000000003,2368.9908,1939.8258,2262.0897,2311.2486,2004.0705,2056.8708,2255.3271,1819.9197000000001
1.9597384929656982,2286.279,2403.0639,2094.8454,2124.2367,2249.8650000000002,2403.324,2368.9908,1941.1263000000001,2262.6099,2309.9481,2001.4695000000002,2057.6511,2254.2867,1821.2202
1.968742847442627,2285.7588,2403.0639,2094.8454,2123.7165,2250.6453,2404.6245,2368.4706,1940.346,2263.3902000000003,2313.3294,2002.77,2056.0905000000002,2254.2867,1820.9601000000002
1.9777696132659912,2285.7588,2402.0235000000002,2094.8454,2125.5372,2250.9054,2404.8846,2369.7711,1940.8662,2263.3902000000003,2313.8496,2004.3306,2056.0905000000002,2254.5468,1821.4803000000002
1.986691951751709,2286.7992,2402.5437,2093.805,2125.7973,2250.1251,2404.8846,2368.4706,1940.6061000000002,2261.8296,2311.2486,2002.5099000000002,2057.1309,2254.5468,1821.4803000000002
1.995776653289795,2286.0189,2403.5841,2094.3252,2123.9766,2249.6049,2405.4048000000003,2367.4302000000002,1941.6465,2261.8296,2311.7688000000003,2003.0301000000002,2056.6107,2254.8069000000005,1820.4399
2.0047385692596436,2284.9785,2403.324,2095.3656,2123.4564,2250.1251,2404.1043,2369.5110000000004,1941.1263000000001,2262.6099,2312.8092,2003.8104,2056.6107,2255.067,1820.9601000000002
2.0137484073638916,2286.0189,2402.8038,2094.5852999999997,2125.017,2250.9054,2403.5841,2370.2913000000003,1939.5657,2262.3498000000004,2312.5491,2003.0301000000002,2056.3506,2254.5468,1821.4803000000002
2.0227482318878174,2284.7184,2403.5841,2095.3656,2123.9766,2251.4256,2403.324,2369.2509,1941.9066,2262.6099,2312.2889999999998,2003.8104,2058.1713,2255.067,1819.9197000000001
2.031749963760376,2283.4179,2403.0639,2095.1055,2124.7569000000003,2250.9054,2403.0639,2368.9908,1940.6061000000002,2263.9104,2312.2889999999998,2003.0301000000002,2057.6511,2254.0266,1819.9197000000001
2.0407633781433105,2284.7184,2402.0235000000002,2095.1055,2125.5372,2250.6453,2403.5841,2367.6902999999998,1940.0859,2264.4306,2312.0289000000002,2003.0301000000002,2058.6915,2254.2867,1820.9601000000002
2.0497477054595947,2286.5391,2401.7634000000003,2095.6257,2125.2771000000002,2251.4256,2404.1043,2369.2509,1940.8662,2262.3498000000004,2312.2889999999998,2003.0301000000002,2055.8304,2254.8069000000005,1820.7
2.058753728866577,2286.0189,2402.2835999999998,2095.3656,2124.7569000000003,2250.9054,2404.3644000000004,2371.0715999999998,1941.9066,2262.87,2312.5491,2003.8104,2055.8304,2254.8069000000005,1820.9601000000002
2.0677614212036133,2286.279,2402.2835999999998,2095.3656,2123.7165,2250.3852,2404.1043,2369.5110000000004,1940.8662,2263.3902000000003,2312.0289000000002,2004.3306,2058.4314,2253.7664999999997,1820.7
2.076741933822632,2286.279,2402.2835999999998,2094.5852999999997,2124.4968000000003,2250.6453,2404.1043,2367.9504,1940.0859,2262.3498000000004,2312.0289000000002,2004.0705,2056.8708,2253.7664999999997,1819.9197000000001
2.085756301879883,2285.4987,2402.0235000000002,2093.5449,2123.4564,2250.6453,2404.1043,2370.5514000000003,1942.1667,2262.0897,2312.8092,2002.77,2056.6107,2254.8069000000005,1820.9601000000002
2.0947725772857666,2285.4987,2402.0235000000002,2093.5449,2123.7165,2250.9054,2403.8442,2369.5110000000004,1941.1263000000001,2260.7892,2312.2889999999998,2003.2902,2057.391,2254.8069000000005,1820.9601000000002
2.103703260421753,2285.7588,2402.0235000000002,2094.8454,2124.7569000000003,2251.1655,2404.1043,2367.4302000000002,1940.0859,2262.87,2312.2889999999998,2002.2498,2056.6107,2254.2867,1821.4803000000002
2.112751007080078,2285.2385999999997,2402.5437,2094.3252,2124.2367,2251.9458,2403.8442,2369.5110000000004,1939.8258,2264.6907,2312.2889999999998,2002.77,2056.8708,2255.067,1821.7404
2.1217126846313477,2284.7184,2402.8038,2094.3252,2125.017,2251.4256,2403.324,2371.3317,1940.6061000000002,2261.8296,2312.0289000000002,2004.3306,2058.6915,2255.5872000000004,1821.7404
2.130751848220825,2284.7184,2402.2835999999998,2094.3252,2126.0574,2250.6453,2403.8442,2368.7307,1940.8662,2260.269,2312.2889999999998,2002.5099000000002,2055.3102,2254.2867,1821.4803000000002
2.13970947265625,2285.4987,2402.5437,2095.1055,2123.9766,2251.4256,2403.5841,2368.4706,1940.8662,2261.8296,2312.0289000000002,2003.5503,2058.1713,2254.8069000000005,1822.2606
2.1487154960632324,2286.0189,2402.2835999999998,2095.6257,2125.017,2251.4256,2403.8442,2369.2509,1940.346,2260.7892,2311.7688000000003,2003.0301000000002,2056.6107,2254.8069000000005,1821.2202
2.1577539443969727,2283.6780000000003,2401.2432,2095.1055,2126.5776,2251.1655,2403.8442,2368.7307,1941.6465,2263.3902000000003,2311.7688000000003,2004.0705,2056.6107,2253.7664999999997,1820.9601000000002
2.166839361190796,2283.9381000000003,2402.2835999999998,2094.3252,2125.5372,2250.1251,2403.5841,2368.4706,1940.6061000000002,2263.1301000000003,2312.0289000000002,2002.77,2057.1309,2255.067,1820.9601000000002
2.1758153438568115,2284.4583,2403.0639,2094.3252,2125.7973,2249.8650000000002,2403.5841,2369.7711,1939.5657,2261.8296,2312.2889999999998,2003.2902,2056.3506,2256.1074,1820.9601000000002
2.1847987174987793,2284.7184,2402.5437,2094.8454,2126.0574,2250.6453,2404.1043,2368.9908,1939.0455000000002,2262.3498000000004,2312.5491,2003.8104,2057.1309,2254.5468,1820.7
2.193800926208496,2285.4987,2402.2835999999998,2094.3252,2125.017,2251.1655,2405.4048000000003,2367.1701000000003,1938.5253000000002,2261.8296,2312.5491,2002.2498,2056.6107,2254.5468,1820.9601000000002
2.2027177810668945,2284.1982,2403.5841,2094.0651000000003,2126.0574,2250.3852,2404.1043,2368.9908,1940.6061000000002,2262.87,2312.5491,2002.77,2056.3506,2255.3271,1820.1798000000001
2.2117562294006348,2285.7588,2404.1043,2095.1055,2125.7973,2251.1655,2403.5841,2367.9504,1941.1263000000001,2262.87,2312.0289000000002,2002.2498,2054.2698,2252.4660000000003,1820.9601000000002
2.2208032608032227,2286.279,2402.2835999999998,2094.3252,2125.5372,2250.9054,2403.8442,2366.91,1941.3863999999999,2262.3498000000004,2312.8092,2003.5503,2056.0905000000002,2252.9862,1820.9601000000002
2.229907512664795,2284.7184,2401.5033,2093.805,2125.5372,2249.6049,2403.5841,2367.6902999999998,1941.3863999999999,2262.3498000000004,2311.2486,2003.2902,2056.8708,2254.8069000000005,1819.6596
2.238804817199707,2283.9381000000003,2402.8038,2096.1459,2125.5372,2249.8650000000002,2403.5841,2368.9908,1941.3863999999999,2262.87,2310.4683,2003.0301000000002,2056.8708,2254.8069000000005,1820.4399
2.2478182315826416,2284.4583,2402.5437,2096.9262,2126.0574,2250.6453,2403.324,2368.4706,1940.0859,2263.3902000000003,2311.7688000000003,2003.8104,2056.8708,2254.0266,1820.7
2.256808042526245,2283.4179,2401.5033,2094.0651000000003,2125.7973,2250.3852,2403.0639,2368.4706,1940.6061000000002,2263.9104,2311.2486,2004.5907000000002,2055.8304,2254.5468,1820.1798000000001
2.2658097743988037,2286.0189,2402.8038,2095.6257,2125.5372,2250.1251,2403.5841,2368.7307,1941.3863999999999,2263.6503,2312.8092,2003.2902,2055.0501,2253.5064,1820.9601000000002
2.2748115062713623,2285.4987,2402.8038,2095.3656,2126.3175,2249.3448000000003,2403.0639,2369.2509,1940.346,2265.471,2313.3294,2003.2902,2055.5703000000003,2253.2463000000002,1819.1394
2.283825635910034,2284.7184,2403.324,2095.3656,2125.2771000000002,2250.1251,2404.6245,2369.2509,1940.0859,2263.9104,2311.5087,2004.0705,2057.6511,2254.2867,1819.9197000000001
2.292762517929077,2286.7992,2403.5841,2095.6257,2125.017,2251.9458,2405.925,2368.2105,1940.346,2261.5695,2312.0289000000002,2003.5503,2056.8708,2255.8473000000004,1821.7404
2.3018240928649902,2287.5795,2402.8038,2095.1055,2125.5372,2251.1655,2404.6245,2368.4706,1941.3863999999999,2261.5695,2312.8092,2002.5099000000002,2057.1309,2255.8473000000004,1821.2202
2.3108012676239014,2286.0189,2402.0235000000002,2094.8454,2124.7569000000003,2250.1251,2403.0639,2368.9908,1940.6061000000002,2260.7892,2311.5087,2002.2498,2056.8708,2253.2463000000002,1819.9197000000001
2.319770097732544,2285.7588,2402.8038,2095.6257,2124.7569000000003,2251.4256,2404.1043,2366.91,1940.6061000000002,2264.9508,2312.2889999999998,2003.8104,2057.6511,2253.5064,1821.7404
2.3288073539733887,2284.9785,2402.2835999999998,2096.1459,2124.2367,2250.1251,2403.5841,2368.2105,1940.6061000000002,2262.6099,2312.5491,2003.5503,2056.8708,2252.7261,1821.2202
2.337820291519165,2284.1982,2402.5437,2095.6257,2124.4968000000003,2249.3448000000003,2403.324,2368.7307,1942.1667,2262.0897,2312.2889999999998,2004.8508,2057.391,2253.2463000000002,1820.1798000000001
2.3466975688934326,2286.0189,2404.6245,2095.1055,2125.017,2250.3852,2404.3644000000004,2369.2509,1941.6465,2262.87,2311.5087,2003.8104,2055.5703000000003,2254.2867,1819.9197000000001
2.3557417392730713,2285.2385999999997,2404.3644000000004,2094.3252,2126.0574,2251.9458,2405.1447000000003,2370.0312,1940.6061000000002,2262.87,2312.2889999999998,2003.8104,2055.3102,2255.067,1819.9197000000001
2.364741086959839,2284.7184,2402.2835999999998,2093.805,2126.3175,2250.6453,2403.8442,2368.7307,1940.8662,2262.0897,2313.0693,2004.5907000000002,2057.391,2255.067,1820.9601000000002
2.373858690261841,2285.7588,2402.5437,2094.3252,2126.0574,2249.3448000000003,2403.5841,2368.9908,1941.3863999999999,2261.5695,2310.9885000000004,2004.3306,2055.5703000000003,2252.9862,1821.4803000000002
2.3827686309814453,2285.4987,2402.0235000000002,2095.3656,2123.9766,2251.4256,2404.3644000000004,2368.9908,1940.0859,2262.3498000000004,2311.7688000000003,2004.5907000000002,2058.1713,2254.2867,1820.9601000000002
2.391815185546875,2285.2385999999997,2402.5437,2094.3252,2124.4968000000003,2251.4256,2404.3644000000004,2367.6902999999998,1940.0859,2261.5695,2310.4683,2003.8104,2056.6107,2254.8069000000005,1821.4803000000002
2.400815963745117,2284.7184,2403.324,2095.6257,2126.0574,2250.1251,2404.3644000000004,2368.7307,1940.346,2262.3498000000004,2310.9885000000004,2004.3306,2057.1309,2253.7664999999997,1821.2202
2.4098477363586426,2286.279,2403.324,2096.1459,2125.017,2249.3448000000003,2403.324,2368.2105,1939.3056,2261.3094,2313.8496,2003.5503,2057.1309,2254.5468,1819.9197000000001
2.4187018871307373,2285.4987,2402.2835999999998,2094.3252,2124.2367,2250.3852,2403.8442,2367.6902999999998,1939.5657,2260.7892,2313.3294,2003.5503,2056.3506,2255.3271,1820.1798000000001
2.427751302719116,2284.9785,2402.8038,2094.3252,2125.2771000000002,2251.1655,2405.4048000000003,2368.9908,1940.346,2261.5695,2311.7688000000003,2003.2902,2055.5703000000003,2254.8069000000005,1820.7
2.4367446899414062,2285.7588,2403.0639,2095.8858,2125.2771000000002,2249.6049,2403.8442,2368.7307,1941.1263000000001,2261.0493,2313.0693,2003.8104,2057.1309,2255.5872000000004,1819.1394
2.4458281993865967,2286.0189,2402.5437,2094.8454,2124.4968000000003,2250.9054,2403.324,2368.2105,1940.8662,2261.0493,2312.5491,2003.2902,2055.3102,2254.2867,1819.9197000000001
2.45481276512146,2285.7588,2402.2835999999998,2094.5852999999997,2123.9766,2251.1655,2404.8846,2368.9908,1942.1667,2262.3498000000004,2312.5491,2004.3306,2055.8304,2254.2867,1820.9601000000002
2.463758945465088,2286.5391,2401.5033,2095.6257,2125.2771000000002,2250.3852,2404.1043,2368.7307,1941.6465,2262.6099,2312.5491,2003.8104,2057.6511,2254.8069000000005,1820.1798000000001
2.4727680683135986,2285.4987,2400.9831000000004,2095.3656,2126.8377,2250.6453,2401.7634000000003,2368.7307,1940.6061000000002,2263.1301000000003,2312.8092,2003.0301000000002,2056.0905000000002,2254.8069000000005,1819.6596
2.4817545413970947,2284.1982,2401.7634000000003,2095.3656,2125.5372,2250.6453,2402.0235000000002,2369.5110000000004,1941.9066,2263.1301000000003,2311.7688000000003,2003.0301000000002,2057.6511,2254.8069000000005,1820.4399
2.49076509475708,2284.1982,2402.8038,2095.3656,2123.7165,2250.1251,2403.8442,2368.7307,1941.3863999999999,2262.3498000000004,2311.2486,2002.77,2058.1713,2254.0266,1820.9601000000002
2.4997427463531494,2285.7588,2402.8038,2094.3252,2126.5776,2251.4256,2403.5841,2367.4302000000002,1938.7854,2263.3902000000003,2312.2889999999998,2003.8104,2058.1713,2254.0266,1821.4803000000002
2.50874662399292,2286.279,2401.7634000000003,2095.1055,2125.2771000000002,2250.3852,2403.5841,2368.4706,1940.0859,2263.3902000000003,2311.5087,2001.7296000000001,2057.391,2256.6276000000003,1819.6596
2.5177459716796875,2285.7588,2402.2835999999998,2095.3656,2125.017,2249.8650000000002,2403.8442,2369.7711,1941.1263000000001,2263.3902000000003,2310.9885000000004,2002.5099000000002,2056.8708,2256.6276000000003,1819.6596
2.526761054992676,2285.7588,2403.0639,2095.6257,2125.5372,2250.1251,2405.1447000000003,2369.7711,1940.6061000000002,2262.0897,2310.7284,2003.2902,2054.2698,2254.0266,1820.9601000000002
2.5357449054718018,2284.1982,2402.2835999999998,2095.3656,2125.7973,2250.6453,2405.1447000000003,2370.0312,1940.346,2262.0897,2312.5491,2003.2902,2053.4895,2254.0266,1820.9601000000002
2.5447473526000977,2283.4179,2402.2835999999998,2095.8858,2123.9766,2250.9054,2404.6245,2369.7711,1940.6061000000002,2263.3902000000003,2313.8496,2002.77,2057.1309,2255.067,1821.4803000000002
2.5537619590759277,2286.7992,2402.5437,2095.6257,2122.416,2250.3852,2405.1447000000003,2368.9908,1940.6061000000002,2263.6503,2310.4683,2003.0301000000002,2057.391,2254.5468,1822.0005
2.5627520084381104,2287.0593000000003,2404.3644000000004,2095.8858,2124.4968000000003,2250.3852,2405.1447000000003,2367.6902999999998,1940.346,2262.6099,2312.0289000000002,2001.9897,2053.4895,2254.2867,1819.1394
2.5717554092407227,2287.5795,2404.1043,2093.805,2125.2771000000002,2250.9054,2405.1447000000003,2367.6902999999998,1940.6061000000002,2263.6503,2311.5087,2000.9493000000002,2049.3279,2254.2867,1818.6192
2.580742835998535,2288.0997,2402.8038,2093.0247000000004,2124.4968000000003,2250.9054,2405.4048000000003,2368.2105,1938.7854,2263.9104,2311.2486,2002.77,2047.7673,2254.0266,1819.6596
2.589754104614258,2286.279,2402.5437,2094.8454,2123.4564,2251.4256,2405.1447000000003,2370.2913000000003,1938.0051,2263.6503,2310.7284,2002.2498,2045.6865,2252.9862,1818.8793
2.598747491836548,2283.9381000000003,2402.5437,2095.6257,2125.017,2251.1655,2405.4048000000003,2370.8115,1941.3863999999999,2263.9104,2309.688,2003.2902,2045.6865,2252.7261,1818.3591
2.607755422592163,2285.2385999999997,2403.5841,2096.4060000000004,2127.3579,2251.6857,2405.925,2370.5514000000003,1941.6465,2263.1301000000003,2310.2082,2004.3306,2045.9466,2252.9862,1819.9197000000001
2.6167478561401367,2289.4002,2403.0639,2097.4464000000003,2127.3579,2251.9458,2405.1447000000003,2372.6322,1941.3863999999999,2264.1705,2310.4683,2003.0301000000002,2052.9693,2253.5064,1820.4399
2.625725030899048,2289.6603,2402.8038,2096.9262,2127.0978,2250.1251,2405.925,2369.7711,1940.6061000000002,2263.1301000000003,2311.7688000000003,2002.77,2057.6511,2254.8069000000005,1819.6596
2.6347436904907227,2287.5795,2403.0639,2095.8858,2126.3175,2249.8650000000002,2406.1851,2368.7307,1941.3863999999999,2263.9104,2313.0693,2002.77,2060.2521,2255.5872000000004,1820.1798000000001
2.6437511444091797,2287.3194000000003,2402.5437,2094.8454,2126.0574,2250.3852,2404.1043,2368.9908,1942.4268000000002,2264.1705,2312.5491,2001.9897,2061.5526,2255.5872000000004,1821.2202
2.652761697769165,2288.3598,2402.2835999999998,2094.3252,2126.0574,2251.1655,2402.8038,2367.9504,1941.6465,2263.3902000000003,2313.0693,2002.2498,2059.2117000000003,2255.3271,1820.1798000000001
2.661750078201294,2289.1401,2402.2835999999998,2093.805,2123.9766,2250.6453,2404.1043,2366.6499,1940.6061000000002,2263.3902000000003,2312.5491,2003.2902,2059.2117000000003,2254.8069000000005,1820.1798000000001
2.6707065105438232,2289.4002,2402.0235000000002,2093.2848000000004,2122.1559,2250.6453,2404.6245,2367.4302000000002,1940.6061000000002,2262.6099,2310.2082,2001.9897,2058.1713,2255.3271,1820.1798000000001
2.6797561645507812,2286.7992,2401.7634000000003,2094.0651000000003,2125.5372,2250.3852,2402.5437,2368.9908,1940.8662,2263.1301000000003,2310.7284,2001.7296000000001,2058.1713,2256.1074,1821.2202
2.6887402534484863,2286.7992,2402.0235000000002,2094.5852999999997,2123.9766,2249.8650000000002,2402.8038,2368.2105,1939.8258,2262.87,2311.7688000000003,2001.9897,2056.3506,2255.067,1821.7404
2.697756767272949,2285.7588,2402.0235000000002,2094.5852999999997,2123.7165,2250.1251,2403.8442,2368.9908,1941.3863999999999,2263.9104,2313.5895,2003.0301000000002,2056.3506,2254.2867,1822.0005
2.7067527770996094,2285.2385999999997,2401.7634000000003,2094.5852999999997,2125.7973,2250.3852,2403.0639,2367.6902999999998,1941.6465,2263.6503,2312.5491,2002.77,2057.391,2254.0266,1822.7808
2.7157583236694336,2285.7588,2401.5033,2095.1055,2126.8377,2250.3852,2403.0639,2367.4302000000002,1941.1263000000001,2262.87,2309.4279,2002.2498,2057.9112,2254.2867,1822.0005
2.7247517108917236,2286.0189,2402.2835999999998,2095.1055,2125.017,2249.8650000000002,2403.5841,2368.9908,1940.8662,2263.1301000000003,2309.9481,2001.9897,2057.391,2254.8069000000005,1820.4399
2.733761787414551,2287.0593000000003,2403.0639,2094.0651000000003,2126.0574,2250.1251,2404.1043,2369.2509,1941.1263000000001,2263.6503,2311.7688000000003,2001.9897,2053.7496,2255.8473000000004,1820.7
2.7427635192871094,2286.7992,2402.8038,2095.1055,2123.9766,2250.1251,2402.8038,2367.6902999999998,1940.0859,2262.3498000000004,2310.4683,2001.4695000000002,2055.0501,2255.067,1821.2202
2.7518229484558105,2286.7992,2403.324,2094.0651000000003,2123.7165,2250.3852,2404.3644000000004,2367.4302000000002,1940.0859,2262.6099,2310.9885000000004,1999.3887,2052.9693,2254.2867,1820.9601000000002
2.7608139514923096,2286.0189,2402.8038,2092.5045,2124.7569000000003,2250.9054,2404.3644000000004,2367.9504,1940.6061000000002,2261.8296,2310.9885000000004,2002.2498,2052.1890000000003,2255.3271,1821.2202
2.769819736480713,2286.5391,2402.8038,2094.3252,2124.2367,2250.3852,2404.3644000000004,2369.2509,1939.8258,2261.0493,2311.5087,2004.3306,2052.4491,2253.5064,1819.3995000000002
2.7788455486297607,2287.0593000000003,2403.0639,2096.1459,2125.017,2249.6049,2404.6245,2368.4706,1940.6061000000002,2263.1301000000003,2312.8092,2003.0301000000002,2055.0501,2251.9458,1818.6192
2.787830352783203,2286.7992,2403.5841,2094.8454,2125.7973,2249.6049,2404.1043,2367.4302000000002,1941.3863999999999,2263.1301000000003,2312.2889999999998,2001.4695000000002,2056.0905000000002,2253.7664999999997,1820.4399
2.7968289852142334,2284.7184,2401.5033,2095.6257,2125.5372,2250.9054,2403.8442,2371.0715999999998,1941.1263000000001,2263.6503,2311.7688000000003,2005.6311,2057.1309,2254.0266,1822.0005
2.8058178424835205,2286.0189,2400.723,2095.8858,2126.0574,2249.8650000000002,2404.6245,2369.7711,1941.3863999999999,2264.1705,2312.5491,2003.2902,2057.1309,2254.0266,1821.4803000000002
2.814775228500366,2285.4987,2401.5033,2093.805,2124.7569000000003,2249.3448000000003,2404.6245,2370.2913000000003,1941.1263000000001,2263.3902000000003,2312.5491,2001.9897,2056.8708,2254.0266,1820.4399
2.8328158855438232,2286.0189,2402.5437,2094.5852999999997,2124.7569000000003,2252.4660000000003,2404.6245,2367.4302000000002,1940.0859,2263.9104,2312.0289000000002,2002.2498,2055.3102,2254.8069000000005,1821.2202
2.841825246810913,2285.4987,2402.8038,2095.1055,2124.2367,2250.6453,2403.5841,2369.5110000000004,1940.6061000000002,2262.87,2313.3294,2003.8104,2057.1309,2255.3271,1821.2202
2.850822925567627,2285.7588,2402.8038,2093.805,2123.7165,2250.3852,2404.6245,2369.2509,1939.3056,2262.0897,2312.5491,2000.9493000000002,2055.3102,2253.7664999999997,1820.7
2.8598203659057617,2283.9381000000003,2402.5437,2092.5045,2124.7569000000003,2251.9458,2405.1447000000003,2367.4302000000002,1940.0859,2263.1301000000003,2312.5491,2001.4695000000002,2050.8885,2254.5468,1820.1798000000001
2.8687944412231445,2284.4583,2402.8038,2094.3252,2123.7165,2251.1655,2405.6648999999998,2367.1701000000003,1940.8662,2263.6503,2311.5087,2002.2498,2050.1082,2252.7261,1820.9601000000002
2.877814531326294,2285.4987,2402.8038,2094.0651000000003,2124.2367,2250.6453,2405.1447000000003,2367.9504,1941.3863999999999,2264.4306,2310.9885000000004,2003.0301000000002,2050.8885,2252.7261,1821.4803000000002
2.8868181705474854,2287.5795,2403.0639,2094.0651000000003,2124.7569000000003,2250.3852,2405.4048000000003,2368.9908,1940.346,2262.3498000000004,2312.2889999999998,2002.2498,2050.6284,2254.2867,1821.4803000000002
2.8958239555358887,2287.8396000000002,2403.324,2094.5852999999997,2125.5372,2251.1655,2405.925,2369.5110000000004,1941.3863999999999,2262.6099,2313.5895,2001.9897,2049.3279,2254.2867,1820.4399
2.9048073291778564,2287.3194000000003,2403.324,2094.3252,2125.5372,2251.1655,2404.3644000000004,2368.7307,1942.1667,2263.6503,2312.8092,2002.2498,2050.8885,2253.5064,1820.1798000000001
2.9137823581695557,2286.5391,2402.8038,2095.3656,2125.2771000000002,2249.8650000000002,2406.4452,2369.7711,1940.346,2264.4306,2312.8092,2004.0705,2052.4491,2254.0266,1822.2606
2.9228217601776123,2286.5391,2402.8038,2096.4060000000004,2124.4968000000003,2250.3852,2404.1043,2368.7307,1941.6465,2263.3902000000003,2311.7688000000003,2003.5503,2052.7092000000002,2254.5468,1822.0005
2.9317820072174072,2284.9785,2402.8038,2095.6257,2125.017,2250.6453,2403.324,2369.2509,1941.3863999999999,2262.0897,2311.5087,2003.8104,2051.6688,2255.067,1820.1798000000001
2.9408185482025146,2285.7588,2402.2835999999998,2095.1055,2125.5372,2250.3852,2405.4048000000003,2369.2509,1940.6061000000002,2262.0897,2312.8092,2005.371,2053.2294,2254.2867,1822.0005
2.9498255252838135,2287.8396000000002,2402.2835999999998,2096.4060000000004,2124.4968000000003,2250.6453,2404.8846,2368.4706,1941.1263000000001,2262.0897,2312.0289000000002,2004.3306,2052.7092000000002,2254.2867,1823.8211999999999
2.9588353633880615,2286.5391,2401.2432,2097.4464000000003,2124.2367,2250.3852,2403.5841,2367.6902999999998,1941.3863999999999,2262.87,2310.7284,2003.2902,2055.3102,2254.8069000000005,1822.2606
2.9678187370300293,2285.4987,2400.2028,2096.6661,2125.017,2250.1251,2403.5841,2367.4302000000002,1939.3056,2263.1301000000003,2311.7688000000003,2003.8104,2055.8304,2253.5064,1820.9601000000002
2.976854085922241,2286.5391,2402.8038,2097.1863000000003,2122.9362,2250.1251,2403.5841,2369.7711,1939.8258,2262.6099,2310.9885000000004,2005.1109000000001,2056.3506,2252.7261,1823.301
2.985841989517212,2283.9381000000003,2403.0639,2100.0474,2123.9766,2250.1251,2402.8038,2368.7307,1937.7450000000001,2262.0897,2311.7688000000003,2003.8104,2057.6511,2254.5468,1820.7
2.99487566947937,2282.1174,2402.2835999999998,2096.9262,2125.017,2250.9054,2403.0639,2370.2913000000003,1937.4849000000002,2263.1301000000003,2312.5491,2006.1513,2056.3506,2255.8473000000004,1819.9197000000001
3.003831624984741,2283.6780000000003,2401.7634000000003,2093.2848000000004,2123.7165,2250.6453,2404.6245,2369.7711,1938.0051,2262.87,2311.5087,2003.8104,2053.4895,2255.5872000000004,1822.7808
3.012864828109741,2283.6780000000003,2402.0235000000002,2093.0247000000004,2123.1963,2250.3852,2404.6245,2368.7307,1939.0455000000002,2262.6099,2311.7688000000003,2000.6892,2047.5072000000002,2254.0266,1822.0005
3.0218470096588135,2281.8573,2402.0235000000002,2094.3252,2123.7165,2250.3852,2403.0639,2368.7307,1940.8662,2263.6503,2312.8092,2003.2902,2045.6865,2254.0266,1820.9601000000002
3.030792474746704,2284.4583,2403.0639,2095.8858,2125.5372,2250.9054,2404.3644000000004,2367.4302000000002,1940.346,2261.8296,2311.2486,2003.0301000000002,2044.9062,2254.5468,1821.7404
3.039835214614868,2286.5391,2402.8038,2095.6257,2125.7973,2250.6453,2403.5841,2367.4302000000002,1941.3863999999999,2261.8296,2314.1097,2002.5099000000002,2049.588,2255.3271,1821.2202
3.048851251602173,2286.7992,2403.324,2095.1055,2124.7569000000003,2250.9054,2402.5437,2368.2105,1940.6061000000002,2262.3498000000004,2311.7688000000003,2002.77,2051.1486,2254.8069000000005,1821.2202
3.0578155517578125,2285.4987,2402.8038,2095.3656,2125.5372,2250.3852,2404.6245,2366.3898000000004,1941.3863999999999,2262.6099,2309.9481,2003.8104,2051.6688,2253.7664999999997,1823.0409000000002
3.066826105117798,2284.9785,2400.723,2095.6257,2125.7973,2249.0847000000003,2404.3644000000004,2363.7888000000003,1941.9066,2262.6099,2312.2889999999998,2003.8104,2052.4491,2254.0266,1824.0813
3.0758297443389893,2284.9785,2400.4629,2095.8858,2125.5372,2249.8650000000002,2403.324,2363.2686,1941.3863999999999,2263.6503,2313.5895,2004.0705,2054.2698,2255.8473000000004,1822.5207
3.084843158721924,2284.1982,2402.0235000000002,2095.3656,2124.4968000000003,2250.6453,2403.8442,2363.2686,1941.1263000000001,2263.6503,2312.0289000000002,2004.0705,2056.6107,2255.8473000000004,1820.4399
3.0938382148742676,2287.0593000000003,2402.8038,2094.0651000000003,2125.7973,2250.6453,2403.5841,2365.3494000000005,1941.9066,2261.8296,2313.3294,2002.5099000000002,2054.2698,2254.8069000000005,1822.7808
3.102841854095459,2287.0593000000003,2402.8038,2093.805,2125.5372,2250.1251,2404.1043,2365.0893,1940.6061000000002,2262.0897,2312.8092,2001.4695000000002,2053.2294,2254.8069000000005,1821.4803000000002
3.1117734909057617,2286.279,2402.8038,2093.805,2123.4564,2250.1251,2404.8846,2366.3898000000004,1939.8258,2263.6503,2312.2889999999998,2003.0301000000002,2050.1082,2254.0266,1820.4399
3.120850086212158,2286.5391,2402.8038,2094.3252,2123.7165,2250.6453,2405.6648999999998,2367.1701000000003,1940.346,2264.1705,2312.0289000000002,2004.0705,2051.4087,2254.8069000000005,1821.2202
3.1298410892486572,2286.7992,2402.5437,2093.5449,2124.4968000000003,2250.9054,2405.6648999999998,2366.6499,1940.0859,2262.6099,2311.7688000000003,2002.2498,2052.4491,2254.0266,1820.7
3.138833999633789,2286.279,2401.7634000000003,2093.805,2123.9766,2250.3852,2404.6245,2367.4302000000002,1940.0859,2262.6099,2312.5491,2003.8104,2051.4087,2252.7261,1820.9601000000002
3.1477794647216797,2286.5391,2402.5437,2095.8858,2123.4564,2249.8650000000002,2404.6245,2368.4706,1939.3056,2263.6503,2312.8092,2005.8912,2049.3279,2253.2463000000002,1822.0005
3.1567678451538086,2283.9381000000003,2402.0235000000002,2095.8858,2124.4968000000003,2249.8650000000002,2404.6245,2370.2913000000003,1940.346,2262.3498000000004,2311.5087,2003.5503,2050.8885,2252.2059,1821.7404
3.165776491165161,2284.4583,2401.7634000000003,2096.6661,2125.2771000000002,2250.6453,2404.8846,2371.0715999999998,1939.8258,2262.0897,2311.7688000000003,2004.5907000000002,2050.3683,2253.5064,1822.5207
3.174703359603882,2286.0189,2402.5437,2096.6661,2124.7569000000003,2250.9054,2405.1447000000003,2369.7711,1939.8258,2263.9104,2310.4683,2005.1109000000001,2051.9289,2254.5468,1821.4803000000002
3.183767557144165,2286.0189,2403.8442,2095.6257,2124.2367,2251.1655,2405.1447000000003,2368.4706,1940.0859,2264.4306,2310.2082,2003.0301000000002,2051.6688,2252.9862,1820.4399
3.1927192211151123,2284.7184,2403.5841,2095.3656,2125.017,2251.4256,2405.1447000000003,2369.2509,1940.346,2263.6503,2312.0289000000002,2001.4695000000002,2048.8077,2252.9862,1820.7
3.2017641067504883,2284.1982,2402.2835999999998,2095.8858,2125.2771000000002,2250.9054,2404.3644000000004,2369.5110000000004,1940.6061000000002,2263.9104,2312.5491,2003.5503,2051.9289,2255.067,1820.7
3.210770606994629,2284.9785,2402.2835999999998,2096.6661,2125.017,2251.1655,2404.3644000000004,2369.2509,1940.6061000000002,2263.1301000000003,2311.7688000000003,2003.5503,2052.7092000000002,2254.0266,1819.1394
3.2197742462158203,2286.7992,2404.6245,2096.6661,2125.2771000000002,2250.6453,2405.4048000000003,2369.5110000000004,1940.8662,2264.1705,2312.0289000000002,2002.2498,2049.588,2253.2463000000002,1819.9197000000001
3.2287814617156982,2287.3194000000003,2403.8442,2093.805,2125.017,2250.1251,2404.8846,2370.0312,1940.0859,2264.4306,2313.0693,2000.6892,2048.8077,2253.2463000000002,1821.7404
3.2377612590789795,2286.0189,2402.8038,2091.4641,2124.7569000000003,2250.6453,2405.1447000000003,2369.7711,1941.3863999999999,2264.6907,2313.5895,2000.9493000000002,2050.6284,2252.2059,1822.5207
3.2469565868377686,2285.4987,2404.1043,2093.0247000000004,2123.9766,2251.1655,2405.4048000000003,2368.9908,1940.0859,2264.9508,2312.0289000000002,2001.9897,2050.8885,2252.9862,1821.7404
3.255805253982544,2284.1982,2405.1447000000003,2095.6257,2123.1963,2251.1655,2405.925,2368.9908,1939.8258,2263.9104,2310.4683,2003.0301000000002,2049.8481,2254.0266,1821.2202
3.264808177947998,2284.1982,2403.5841,2096.1459,2123.7165,2250.9054,2405.925,2369.5110000000004,1942.4268000000002,2263.1301000000003,2311.2486,2002.5099000000002,2052.9693,2252.9862,1820.7
3.273787021636963,2283.9381000000003,2401.7634000000003,2095.8858,2126.5776,2251.1655,2404.1043,2369.7711,1941.6465,2264.1705,2310.2082,2001.9897,2054.0097,2252.7261,1822.2606
3.2827961444854736,2282.3775,2402.8038,2095.6257,2125.2771000000002,2250.9054,2403.5841,2370.8115,1940.6061000000002,2263.1301000000003,2310.9885000000004,2004.3306,2054.0097,2252.9862,1821.4803000000002
3.2918288707733154,2285.7588,2403.324,2096.6661,2123.9766,2250.1251,2402.5437,2369.5110000000004,1941.9066,2264.4306,2313.0693,2003.5503,2055.0501,2254.5468,1821.2202
3.3008360862731934,2286.279,2402.8038,2096.1459,2124.4968000000003,2251.1655,2403.324,2368.4706,1941.9066,2266.2513,2313.0693,2000.6892,2054.0097,2254.8069000000005,1821.7404
3.3098127841949463,2284.9785,2402.8038,2094.5852999999997,2126.5776,2251.9458,2405.4048000000003,2368.9908,1940.0859,2265.7311,2312.2889999999998,2000.169,2051.1486,2252.2059,1820.4399
3.3188066482543945,2285.4987,2402.2835999999998,2095.1055,2128.1382,2251.6857,2405.6648999999998,2369.7711,1941.6465,2264.1705,2312.8092,2002.5099000000002,2054.2698,2251.9458,1819.9197000000001
3.3277742862701416,2288.0997,2402.8038,2096.6661,2126.3175,2250.3852,2403.5841,2367.9504,1942.9470000000001,2262.87,2312.0289000000002,2000.6892,2059.4718000000003,2254.2867,1820.4399
3.3367714881896973,2286.5391,2403.324,2093.2848000000004,2126.3175,2251.6857,2403.5841,2369.2509,1939.8258,2264.1705,2311.5087,2000.169,2058.6915,2253.2463000000002,1819.6596
3.345848798751831,2287.0593000000003,2401.5033,2091.4641,2124.7569000000003,2250.9054,2403.8442,2368.2105,1941.1263000000001,2263.3902000000003,2311.7688000000003,2001.9897,2059.2117000000003,2252.7261,1819.9197000000001
3.3548567295074463,2287.0593000000003,2400.4629,2092.5045,2121.8958,2249.8650000000002,2403.324,2366.6499,1941.9066,2264.9508,2312.8092,2003.2902,2061.2925,2254.5468,1821.7404
3.363818645477295,2285.2385999999997,2402.0235000000002,2092.2444000000005,2123.7165,2250.6453,2405.1447000000003,2367.1701000000003,1940.0859,2264.6907,2313.0693,2000.9493000000002,2060.2521,2254.5468,1821.4803000000002
3.3727915287017822,2284.7184,2402.5437,2090.6838000000002,2127.3579,2249.8650000000002,2407.2255,2366.6499,1939.8258,2263.1301000000003,2312.0289000000002,1999.6488000000002,2057.1309,2252.4660000000003,1820.7
3.3818047046661377,2284.9785,2400.9831000000004,2090.9439,2125.2771000000002,2248.3044000000004,2405.925,2365.3494000000005,1941.9066,2263.6503,2310.9885000000004,2002.2498,2061.8127,2252.7261,1821.7404
3.390794515609741,2284.1982,2401.5033,2091.7242,2125.7973,2251.6857,2405.6648999999998,2368.9908,1940.8662,2263.3902000000003,2312.0289000000002,1999.3887,2060.5122,2253.5064,1817.8389
3.3997082710266113,2285.4987,2402.5437,2091.7242,2126.3175,2250.1251,2405.1447000000003,2368.4706,1940.346,2264.1705,2312.2889999999998,2002.77,2057.9112,2251.9458,1818.8793
3.4087674617767334,2286.5391,2402.8038,2093.5449,2122.1559,2250.3852,2402.8038,2366.91,1939.3056,2262.0897,2312.0289000000002,2002.77,2058.6915,2253.2463000000002,1818.8793
3.417769193649292,2284.9785,2402.5437,2095.8858,2122.6760999999997,2252.2059,2402.5437,2368.2105,1939.5657,2262.87,2312.2889999999998,2001.7296000000001,2058.6915,2253.5064,1817.5788
3.426769733428955,2284.1982,2402.5437,2095.3656,2125.5372,2250.9054,2403.324,2368.7307,1940.0859,2265.2109,2312.2889999999998,2001.4695000000002,2057.6511,2252.9862,1819.9197000000001
3.4357824325561523,2284.7184,2402.5437,2093.805,2124.7569000000003,2249.8650000000002,2402.8038,2367.9504,1940.8662,2264.1705,2312.0289000000002,2003.0301000000002,2057.9112,2254.8069000000005,1823.301
3.4448187351226807,2284.9785,2403.0639,2094.0651000000003,2124.7569000000003,2251.4256,2403.8442,2367.6902999999998,1940.8662,2262.3498000000004,2312.5491,2004.0705,2057.391,2254.8069000000005,1821.4803000000002
3.4538679122924805,2286.279,2402.5437,2093.0247000000004,2124.2367,2249.6049,2404.3644000000004,2368.2105,1940.0859,2263.6503,2313.0693,2003.5503,2058.6915,2254.5468,1819.6596
3.462846279144287,2285.7588,2403.8442,2094.5852999999997,2123.9766,2250.9054,2404.8846,2365.6095,1939.0455000000002,2261.0493,2312.2889999999998,2003.0301000000002,2057.391,2254.2867,1820.4399
3.471832036972046,2286.5391,2403.5841,2096.1459,2126.0574,2252.4660000000003,2404.8846,2366.6499,1940.0859,2261.3094,2312.0289000000002,2003.0301000000002,2054.0097,2253.2463000000002,1819.9197000000001
3.4808993339538574,2287.3194000000003,2402.5437,2096.1459,2126.3175,2250.1251,2404.1043,2368.7307,1941.6465,2263.9104,2312.5491,2003.5503,2056.6107,2253.7664999999997,1819.9197000000001
3.489866018295288,2286.279,2403.324,2096.1459,2125.2771000000002,2250.1251,2405.6648999999998,2367.4302000000002,1940.346,2262.6099,2312.8092,2002.77,2057.391,2253.7664999999997,1819.9197000000001
3.4988393783569336,2284.9785,2403.0639,2094.8454,2124.7569000000003,2251.6857,2406.4452,2366.3898000000004,1939.8258,2261.8296,2313.3294,2003.8104,2056.6107,2252.7261,1820.4399
3.5078206062316895,2285.7588,2402.0235000000002,2094.5852999999997,2123.9766,2249.3448000000003,2404.1043,2366.3898000000004,1940.0859,2262.3498000000004,2312.8092,2005.1109000000001,2056.8708,2252.7261,1820.4399
3.5168395042419434,2285.4987,2403.5841,2097.1863000000003,2125.7973,2249.3448000000003,2405.4048000000003,2370.0312,1940.6061000000002,2263.3902000000003,2313.3294,2004.5907000000002,2058.1713,2254.2867,1820.1798000000001
3.52584171295166,2287.5795,2404.3644000000004,2095.8858,2124.2367,2249.8650000000002,2404.1043,2369.5110000000004,1939.8258,2262.87,2311.7688000000003,2003.0301000000002,2056.8708,2253.2463000000002,1819.6596
3.53484845161438,2286.279,2403.8442,2095.1055,2122.6760999999997,2250.1251,2403.324,2368.9908,1940.8662,2261.5695,2309.688,2003.8104,2055.5703000000003,2253.7664999999997,1820.7
3.5438480377197266,2284.9785,2403.0639,2096.6661,2124.2367,2249.8650000000002,2404.6245,2369.5110000000004,1940.8662,2261.8296,2310.9885000000004,2003.2902,2054.2698,2254.0266,1821.7404
3.552854299545288,2286.7992,2403.0639,2097.1863000000003,2124.4968000000003,2249.6049,2404.8846,2369.5110000000004,1939.8258,2262.6099,2312.5491,2003.0301000000002,2051.4087,2254.2867,1820.9601000000002
3.5618059635162354,2288.6199,2402.8038,2096.6661,2123.9766,2249.8650000000002,2403.8442,2368.9908,1940.6061000000002,2262.87,2312.0289000000002,2004.3306,2053.7496,2254.2867,1820.1798000000001
3.5707523822784424,2287.3194000000003,2402.5437,2094.3252,2125.2771000000002,2248.8246,2404.3644000000004,2371.0715999999998,1940.6061000000002,2262.6099,2311.7688000000003,2002.77,2058.1713,2256.1074,1820.4399
3.5798678398132324,2286.279,2402.8038,2094.5852999999997,2124.2367,2249.0847000000003,2404.1043,2369.5110000000004,1941.1263000000001,2262.3498000000004,2312.0289000000002,2004.0705,2056.6107,2256.1074,1821.7404
3.588840961456299,2285.7588,2403.324,2094.8454,2124.4968000000003,2249.8650000000002,2403.324,2367.6902999999998,1941.6465,2261.0493,2312.0289000000002,2004.5907000000002,2052.9693,2253.5064,1820.9601000000002
3.597876787185669,2284.1982,2402.2835999999998,2095.6257,2125.2771000000002,2249.8650000000002,2403.324,2367.9504,1941.3863999999999,2261.5695,2312.2889999999998,2004.3306,2055.8304,2253.2463000000002,1820.4399
3.6068975925445557,2284.9785,2401.7634000000003,2095.6257,2123.9766,2249.8650000000002,2403.324,2367.6902999999998,1939.8258,2262.3498000000004,2312.0289000000002,2003.8104,2057.391,2254.2867,1820.4399
3.6158487796783447,2286.279,2402.0235000000002,2094.5852999999997,2123.1963,2250.6453,2404.1043,2367.6902999999998,1940.346,2261.5695,2312.2889999999998,2004.5907000000002,2055.5703000000003,2254.5468,1820.9601000000002
3.6249074935913086,2286.7992,2402.2835999999998,2096.4060000000004,2124.7569000000003,2250.9054,2403.8442,2367.9504,1940.0859,2261.5695,2312.0289000000002,2004.5907000000002,2057.391,2254.2867,1822.0005
3.6338441371917725,2286.5391,2402.5437,2094.8454,2124.2367,2249.0847000000003,2402.8038,2368.4706,1940.6061000000002,2263.9104,2312.0289000000002,2003.2902,2054.2698,2253.2463000000002,1820.4399
3.642843008041382,2288.0997,2402.8038,2095.6257,2123.4564,2248.3044000000004,2403.5841,2368.7307,1940.8662,2262.6099,2312.2889999999998,2003.2902,2055.5703000000003,2252.9862,1819.9197000000001
3.651834011077881,2289.1401,2402.8038,2095.3656,2124.4968000000003,2249.6049,2405.1447000000003,2370.0312,1940.346,2262.6099,2312.5491,2002.5099000000002,2054.2698,2253.5064,1820.9601000000002
3.6608452796936035,2289.6603,2402.2835999999998,2094.8454,2125.017,2250.6453,2404.8846,2369.2509,1940.6061000000002,2263.1301000000003,2312.0289000000002,2003.2902,2053.7496,2254.2867,1820.9601000000002
3.669846773147583,2289.4002,2402.0235000000002,2096.4060000000004,2123.7165,2249.6049,2405.4048000000003,2367.6902999999998,1940.6061000000002,2262.0897,2311.7688000000003,2004.0705,2053.2294,2254.2867,1819.6596
3.6788558959960938,2288.0997,2402.0235000000002,2096.4060000000004,2123.1963,2248.5645,2405.4048000000003,2368.4706,1940.6061000000002,2262.0897,2311.7688000000003,2004.0705,2054.0097,2253.7664999999997,1820.1798000000001
3.6878654956817627,2290.1805,2401.7634000000003,2095.3656,2124.2367,2249.8650000000002,2404.6245,2368.7307,1940.0859,2261.5695,2312.5491,2002.5099000000002,2051.9289,2253.5064,1820.1798000000001
3.6968400478363037,2288.6199,2402.2835999999998,2095.3656,2124.7569000000003,2251.4256,2404.3644000000004,2370.0312,1942.1667,2262.87,2312.0289000000002,2006.6715000000002,2051.9289,2253.5064,1820.9601000000002
3.705842971801758,2289.9204,2402.2835999999998,2095.6257,2123.9766,2250.6453,2403.0639,2368.4706,1941.3863999999999,2262.0897,2311.5087,2003.5503,2052.1890000000003,2253.7664999999997,1820.9601000000002
3.7148733139038086,2289.9204,2401.7634000000003,2094.3252,2123.9766,2250.6453,2403.8442,2367.6902999999998,1941.6465,2262.3498000000004,2313.0693,2003.2902,2050.3683,2254.5468,1820.9601000000002
3.723844289779663,2289.1401,2402.2835999999998,2095.1055,2124.7569000000003,2250.1251,2404.8846,2368.2105,1941.6465,2262.0897,2312.8092,2004.8508,2052.4491,2254.5468,1822.0005
3.7328546047210693,2289.1401,2402.8038,2096.4060000000004,2125.2771000000002,2250.1251,2403.5841,2368.4706,1941.1263000000001,2262.6099,2311.7688000000003,2003.8104,2052.1890000000003,2254.2867,1821.7404
3.741842031478882,2287.8396000000002,2401.7634000000003,2096.9262,2124.2367,2250.6453,2403.0639,2368.4706,1940.8662,2263.3902000000003,2312.8092,2003.0301000000002,2051.9289,2254.0266,1822.0005
3.750781536102295,2284.9785,2401.7634000000003,2095.8858,2127.3579,2249.6049,2404.1043,2370.2913000000003,1941.3863999999999,2262.3498000000004,2312.2889999999998,2004.3306,2053.4895,2254.8069000000005,1821.2202
3.7598462104797363,2285.4987,2403.324,2095.1055,2126.3175,2250.1251,2402.8038,2368.9908,1941.1263000000001,2263.6503,2311.7688000000003,2003.5503,2056.6107,2255.067,1821.2202
3.7688374519348145,2286.0189,2403.0639,2094.3252,2123.7165,2250.9054,2403.0639,2368.7307,1939.3056,2263.1301000000003,2312.0289000000002,2003.5503,2054.2698,2252.9862,1821.4803000000002
3.7778844833374023,2286.279,2402.8038,2095.6257,2123.7165,2250.6453,2403.5841,2369.7711,1940.8662,2262.0897,2312.5491,2004.3306,2052.1890000000003,2252.2059,1820.9601000000002
3.7868664264678955,2288.0997,2404.6245,2096.4060000000004,2124.4968000000003,2250.6453,2403.324,2367.6902999999998,1942.1667,2261.5695,2310.7284,2002.77,2051.4087,2254.0266,1820.7
3.7958264350891113,2288.0997,2403.8442,2094.3252,2123.9766,2250.6453,2403.8442,2367.1701000000003,1941.3863999999999,2261.8296,2309.4279,2002.77,2052.1890000000003,2254.8069000000005,1820.9601000000002
3.8048489093780518,2287.8396000000002,2402.0235000000002,2094.3252,2123.4564,2248.8246,2404.3644000000004,2368.2105,1940.0859,2261.8296,2310.9885000000004,2004.0705,2055.5703000000003,2254.5468,1820.9601000000002
3.8139121532440186,2286.5391,2403.5841,2096.9262,2125.5372,2251.1655,2405.1447000000003,2367.9504,1941.1263000000001,2261.5695,2311.7688000000003,2005.8912,2053.4895,2254.2867,1821.4803000000002
3.822841167449951,2286.5391,2403.0639,2097.4464000000003,2125.017,2250.9054,2403.0639,2368.9908,1940.8662,2261.5695,2311.5087,2003.5503,2053.4895,2254.0266,1820.4399
3.840834140777588,2288.88,2402.0235000000002,2096.4060000000004,2124.2367,2249.8650000000002,2403.0639,2369.7711,1940.0859,2262.6099,2312.8092,2004.5907000000002,2054.0097,2255.067,1820.1798000000001
3.8498058319091797,2289.1401,2402.2835999999998,2096.4060000000004,2125.017,2251.1655,2404.6245,2368.9908,1940.8662,2260.5290999999997,2312.5491,2004.5907000000002,2052.7092000000002,2254.8069000000005,1820.7
3.8588340282440186,2286.7992,2402.8038,2095.6257,2124.4968000000003,2252.7261,2404.1043,2369.5110000000004,1941.3863999999999,2261.5695,2312.2889999999998,2003.5503,2052.1890000000003,2254.0266,1819.6596
3.8678438663482666,2287.5795,2400.723,2094.0651000000003,2123.9766,2245.7034000000003,2403.5841,2364.8292,1942.6869000000002,2263.9104,2312.0289000000002,2004.8508,2055.5703000000003,2254.2867,1822.2606
3.8768653869628906,2286.279,2400.4629,2093.805,2123.9766,2247.2639999999997,2403.8442,2364.3089999999997,1943.2071,2264.6907,2313.5895,2007.9720000000002,2060.5122,2254.5468,1822.7808
3.885840892791748,2286.0189,2402.0235000000002,2096.1459,2124.7569000000003,2250.3852,2404.3644000000004,2368.7307,1940.346,2261.5695,2311.2486,2005.371,2057.9112,2254.0266,1820.1798000000001
3.8949947357177734,2287.0593000000003,2402.2835999999998,2096.6661,2125.017,2250.1251,2405.1447000000003,2370.0312,1940.6061000000002,2260.0089000000003,2308.6476000000002,2003.8104,2055.8304,2254.8069000000005,1819.3995000000002
3.9038496017456055,2287.5795,2402.0235000000002,2095.6257,2123.9766,2250.3852,2404.1043,2367.6902999999998,1941.9066,2262.3498000000004,2311.2486,2004.3306,2059.7319,2255.067,1820.1798000000001
3.9128241539001465,2287.3194000000003,2402.5437,2095.6257,2124.2367,2251.6857,2402.5437,2368.9908,1941.3863999999999,2263.9104,2313.8496,2003.0301000000002,2058.9516,2254.0266,1820.4399
3.9218533039093018,2287.5795,2402.5437,2095.8858,2125.5372,2251.1655,2404.1043,2370.8115,1940.6061000000002,2262.87,2312.5491,2002.77,2057.9112,2253.7664999999997,1822.0005
3.9308621883392334,2286.5391,2403.0639,2095.1055,2124.4968000000003,2249.8650000000002,2403.5841,2368.2105,1941.3863999999999,2262.6099,2313.3294,2004.5907000000002,2057.9112,2254.5468,1820.9601000000002
3.939846992492676,2288.3598,2402.2835999999998,2095.8858,2123.9766,2249.8650000000002,2403.0639,2368.2105,1942.1667,2263.3902000000003,2312.8092,2003.2902,2057.391,2254.2867,1821.4803000000002
3.948854684829712,2287.8396000000002,2402.2835999999998,2095.6257,2124.4968000000003,2250.9054,2403.5841,2367.6902999999998,1940.8662,2262.3498000000004,2312.0289000000002,2002.5099000000002,2056.0905000000002,2252.7261,1821.2202
3.9578521251678467,2286.279,2402.5437,2095.1055,2125.017,2251.6857,2403.8442,2368.7307,1940.8662,2261.8296,2312.8092,2003.5503,2055.5703000000003,2252.9862,1820.7
3.9667582511901855,2287.5795,2402.2835999999998,2095.3656,2124.4968000000003,2250.9054,2403.324,2369.2509,1940.6061000000002,2262.3498000000004,2312.8092,2002.77,2053.2294,2253.5064,1820.9601000000002
3.975843906402588,2288.0997,2401.7634000000003,2094.3252,2124.7569000000003,2249.8650000000002,2402.5437,2368.4706,1939.5657,2263.3902000000003,2312.2889999999998,2003.2902,2053.2294,2254.0266,1821.2202
3.9848792552948,2288.3598,2402.2835999999998,2094.5852999999997,2125.017,2249.3448000000003,2403.324,2368.7307,1939.8258,2263.1301000000003,2312.0289000000002,2004.3306,2057.1309,2254.5468,1820.4399
3.9938437938690186,2285.7588,2402.8038,2097.4464000000003,2125.7973,2250.6453,2405.4048000000003,2369.7711,1941.1263000000001,2262.6099,2312.5491,2004.0705,2053.2294,2252.2059,1820.7
4.002876281738281,2286.279,2402.0235000000002,2096.1459,2125.2771000000002,2250.6453,2403.8442,2369.5110000000004,1941.1263000000001,2262.0897,2312.2889999999998,2005.6311,2054.79,2254.0266,1820.7
4.011861324310303,2286.279,2401.7634000000003,2095.1055,2126.0574,2250.9054,2403.8442,2370.0312,1940.6061000000002,2260.7892,2310.9885000000004,2003.0301000000002,2054.2698,2255.3271,1819.9197000000001
4.02086067199707,2285.2385999999997,2402.0235000000002,2095.3656,2126.0574,2249.6049,2404.1043,2368.9908,1939.8258,2261.3094,2311.2486,2001.9897,2052.4491,2254.5468,1820.4399
4.029798984527588,2287.3194000000003,2402.5437,2094.3252,2125.7973,2249.8650000000002,2403.0639,2368.9908,1938.7854,2262.3498000000004,2312.5491,2004.0705,2051.4087,2253.7664999999997,1820.4399
4.038805723190308,2286.7992,2402.2835999999998,2093.0247000000004,2126.0574,2251.4256,2402.0235000000002,2369.5110000000004,1940.6061000000002,2263.3902000000003,2313.3294,2004.0705,2054.2698,2254.2867,1820.4399
4.047813892364502,2287.8396000000002,2402.2835999999998,2096.4060000000004,2125.2771000000002,2249.0847000000003,2405.6648999999998,2367.9504,1941.1263000000001,2262.87,2312.5491,2001.7296000000001,2054.2698,2254.2867,1821.2202
4.056841850280762,2288.0997,2402.5437,2096.6661,2125.7973,2250.1251,2404.8846,2369.5110000000004,1940.8662,2262.3498000000004,2312.2889999999998,2006.1513,2055.5703000000003,2252.2059,1822.0005
4.0658605098724365,2287.8396000000002,2402.5437,2095.8858,2126.0574,2251.1655,2404.1043,2368.7307,1940.6061000000002,2261.3094,2311.7688000000003,2004.5907000000002,2056.0905000000002,2252.4660000000003,1820.9601000000002
4.0748536586761475,2286.5391,2402.0235000000002,2094.8454,2126.3175,2249.6049,2404.6245,2368.9908,1941.6465,2263.3902000000003,2312.2889999999998,2003.8104,2055.3102,2254.5468,1819.9197000000001
4.083813190460205,2286.5391,2402.5437,2095.6257,2126.0574,2249.8650000000002,2404.6245,2369.2509,1940.8662,2264.4306,2312.5491,2004.8508,2056.6107,2254.2867,1820.7
4.092855215072632,2286.5391,2402.8038,2095.8858,2124.7569000000003,2252.2059,2405.1447000000003,2368.2105,1940.6061000000002,2262.6099,2312.8092,2004.8508,2055.5703000000003,2253.2463000000002,1821.4803000000002
4.101847887039185,2286.7992,2401.7634000000003,2096.4060000000004,2124.7569000000003,2251.6857,2405.1447000000003,2367.9504,1941.1263000000001,2262.0897,2313.3294,2004.3306,2055.0501,2254.0266,1820.9601000000002
4.1108458042144775,2286.5391,2402.2835999999998,2094.3252,2123.7165,2251.4256,2403.5841,2369.7711,1940.8662,2262.3498000000004,2312.5491,2004.3306,2054.79,2254.2867,1821.2202
4.119845390319824,2286.7992,2403.324,2094.0651000000003,2123.7165,2251.1655,2404.1043,2370.2913000000003,1941.1263000000001,2263.3902000000003,2312.0289000000002,2003.8104,2055.0501,2254.0266,1820.1798000000001
4.12879490852356,2288.0997,2403.0639,2095.1055,2125.017,2249.3448000000003,2403.8442,2369.2509,1940.6061000000002,2262.0897,2312.5491,2001.7296000000001,2053.7496,2254.8069000000005,1818.8793
4.137793064117432,2286.7992,2402.8038,2096.1459,2126.0574,2250.3852,2403.324,2368.2105,1941.1263000000001,2262.0897,2312.5491,2003.0301000000002,2055.3102,2254.5468,1820.7
4.146857738494873,2286.279,2402.8038,2096.1459,2124.7569000000003,2251.4256,2404.8846,2367.6902999999998,1940.346,2263.3902000000003,2311.5087,2002.77,2055.8304,2254.2867,1821.7404
4.155781984329224,2285.4987,2403.0639,2095.3656,2122.9362,2250.6453,2405.925,2367.9504,1940.0859,2263.1301000000003,2312.0289000000002,2002.77,2054.0097,2254.5468,1820.1798000000001
4.164775848388672,2285.4987,2403.324,2095.8858,2123.4564,2250.9054,2404.3644000000004,2368.2105,1940.8662,2261.8296,2312.5491,2005.1109000000001,2054.5299,2254.2867,1820.1798000000001
4.173784494400024,2286.5391,2402.5437,2097.9665999999997,2124.2367,2251.6857,2404.1043,2368.7307,1941.1263000000001,2263.1301000000003,2313.3294,2003.5503,2056.0905000000002,2255.067,1821.7404
4.1827898025512695,2285.7588,2403.0639,2096.6661,2123.7165,2249.8650000000002,2403.5841,2367.6902999999998,1940.8662,2262.6099,2313.8496,2002.2498,2056.6107,2254.5468,1819.6596
4.19179630279541,2287.3194000000003,2403.8442,2094.5852999999997,2125.5372,2250.6453,2403.324,2367.6902999999998,1940.346,2262.6099,2310.9885000000004,2003.2902,2055.0501,2254.2867,1820.1798000000001
4.200780153274536,2288.0997,2403.5841,2095.3656,2126.3175,2250.3852,2404.3644000000004,2368.9908,1940.0859,2262.87,2310.4683,2005.1109000000001,2056.0905000000002,2255.067,1821.4803000000002
4.209778785705566,2288.0997,2402.0235000000002,2096.1459,2125.2771000000002,2248.0443,2404.6245,2370.0312,1938.5253000000002,2262.3498000000004,2311.5087,2004.8508,2054.0097,2254.2867,1820.4399
4.21879768371582,2286.0189,2401.7634000000003,2094.0651000000003,2125.5372,2248.8246,2404.6245,2370.5514000000003,1939.3056,2261.8296,2310.9885000000004,2004.0705,2052.4491,2254.5468,1820.1798000000001
4.227788925170898,2289.1401,2403.324,2095.1055,2123.9766,2250.9054,2405.925,2368.4706,1942.4268000000002,2262.0897,2311.7688000000003,2003.2902,2052.7092000000002,2253.2463000000002,1820.7
4.236788511276245,2288.3598,2402.8038,2095.8858,2124.2367,2251.1655,2403.8442,2368.7307,1940.0859,2264.1705,2312.8092,2004.3306,2054.79,2252.9862,1820.4399
4.245784282684326,2287.0593000000003,2403.324,2096.6661,2125.2771000000002,2250.6453,2404.1043,2368.2105,1939.5657,2262.3498000000004,2312.0289000000002,2002.5099000000002,2054.79,2253.5064,1820.4399
4.254738092422485,2286.5391,2403.0639,2095.8858,2124.7569000000003,2250.6453,2405.4048000000003,2367.6902999999998,1940.8662,2261.3094,2309.9481,2003.2902,2054.2698,2253.2463000000002,1821.2202
4.2637856006622314,2287.3194000000003,2402.2835999999998,2095.1055,2123.7165,2251.4256,2404.1043,2368.2105,1940.0859,2261.3094,2309.9481,2004.3306,2055.5703000000003,2252.9862,1820.9601000000002
4.272781133651733,2287.3194000000003,2402.5437,2095.6257,2124.7569000000003,2250.9054,2402.5437,2369.2509,1939.8258,2261.0493,2312.5491,2003.0301000000002,2055.3102,2253.7664999999997,1820.1798000000001
4.281774997711182,2286.7992,2401.7634000000003,2096.1459,2125.5372,2249.3448000000003,2403.8442,2368.9908,1942.4268000000002,2262.3498000000004,2313.0693,2004.5907000000002,2055.3102,2254.8069000000005,1819.9197000000001
4.290784120559692,2286.0189,2402.2835999999998,2095.3656,2123.7165,2250.3852,2405.4048000000003,2370.0312,1941.9066,2261.5695,2313.0693,2003.8104,2055.0501,2252.2059,1820.1798000000001
4.299780368804932,2286.5391,2402.8038,2096.6661,2123.9766,2250.3852,2403.5841,2368.7307,1942.4268000000002,2262.6099,2313.0693,2003.5503,2055.8304,2253.5064,1820.7
4.308784008026123,2287.3194000000003,2402.2835999999998,2095.6257,2124.2367,2250.9054,2404.6245,2367.6902999999998,1941.9066,2263.3902000000003,2310.7284,2005.1109000000001,2053.4895,2254.8069000000005,1820.4399
4.3177855014801025,2287.5795,2402.8038,2095.3656,2124.2367,2249.8650000000002,2404.8846,2369.5110000000004,1941.6465,2263.3902000000003,2309.688,2005.371,2054.5299,2254.5468,1819.9197000000001
4.326722145080566,2287.0593000000003,2404.1043,2096.6661,2124.7569000000003,2249.6049,2402.5437,2369.7711,1940.346,2261.5695,2310.7284,2002.77,2056.0905000000002,2253.2463000000002,1819.6596
4.33579683303833,2286.7992,2403.324,2095.3656,2126.3175,2251.4256,2403.324,2368.4706,1940.346,2261.5695,2312.8092,2002.77,2055.3102,2253.2463000000002,1820.4399
4.344789028167725,2286.7992,2403.0639,2097.4464000000003,2124.7569000000003,2249.3448000000003,2403.0639,2367.6902999999998,1939.8258,2262.6099,2311.7688000000003,2002.77,2054.5299,2253.7664999999997,1819.9197000000001
4.353783369064331,2285.2385999999997,2403.0639,2096.4060000000004,2125.2771000000002,2250.3852,2402.2835999999998,2368.9908,1940.8662,2262.6099,2310.9885000000004,2004.0705,2054.79,2254.5468,1821.2202
4.362746715545654,2286.5391,2402.8038,2094.3252,2126.0574,2251.4256,2404.6245,2368.9908,1941.6465,2262.87,2312.0289000000002,2003.8104,2054.0097,2254.2867,1821.2202
4.371744155883789,2286.279,2402.5437,2093.805,2123.7165,2250.9054,2405.925,2367.9504,1941.1263000000001,2261.3094,2313.0693,2003.2902,2053.4895,2253.7664999999997,1820.7
4.380785942077637,2286.7992,2403.5841,2096.6661,2122.6760999999997,2250.1251,2404.1043,2368.2105,1940.0859,2260.5290999999997,2312.2889999999998,2003.8104,2056.0905000000002,2254.0266,1821.7404
4.389761686325073,2289.6603,2404.6245,2097.9665999999997,2124.4968000000003,2250.3852,2402.8038,2369.2509,1940.346,2261.8296,2311.5087,2002.5099000000002,2054.5299,2254.2867,1821.4803000000002
4.398787260055542,2287.3194000000003,2403.8442,2095.8858,2125.2771000000002,2250.3852,2404.3644000000004,2370.2913000000003,1941.3863999999999,2262.87,2313.3294,2003.0301000000002,2054.0097,2254.0266,1820.1798000000001
4.4077911376953125,2288.3598,2401.2432,2096.4060000000004,2125.017,2251.1655,2404.6245,2368.4706,1939.8258,2261.0493,2310.2082,2003.8104,2053.2294,2254.8069000000005,1821.2202
4.416788578033447,2287.0593000000003,2403.324,2095.6257,2126.0574,2250.1251,2404.1043,2368.2105,1939.8258,2262.6099,2309.4279,2005.1109000000001,2056.0905000000002,2254.8069000000005,1820.4399
4.425773620605469,2285.2385999999997,2403.0639,2095.3656,2124.4968000000003,2249.8650000000002,2404.3644000000004,2367.9504,1939.5657,2262.0897,2312.5491,2003.8104,2056.8708,2254.0266,1820.1798000000001
4.434784650802612,2284.7184,2402.0235000000002,2095.6257,2123.4564,2250.9054,2404.8846,2369.5110000000004,1941.1263000000001,2261.5695,2313.8496,2004.5907000000002,2054.79,2253.2463000000002,1821.4803000000002
4.443790435791016,2286.0189,2403.0639,2096.9262,2123.4564,2251.6857,2403.8442,2369.2509,1941.6465,2261.8296,2312.8092,2005.371,2055.0501,2253.5064,1820.9601000000002
4.4527716636657715,2288.6199,2404.6245,2095.8858,2123.9766,2250.6453,2403.8442,2369.2509,1940.346,2262.87,2312.5491,2002.5099000000002,2054.0097,2253.7664999999997,1820.1798000000001
4.461794376373291,2288.88,2403.0639,2094.3252,2124.7569000000003,2249.8650000000002,2404.3644000000004,2369.2509,1940.0859,2263.3902000000003,2312.5491,2002.2498,2054.2698,2253.5064,1820.9601000000002
4.470793008804321,2284.9785,2402.8038,2096.9262,2124.2367,2251.1655,2402.8038,2368.4706,1941.1263000000001,2262.6099,2312.2889999999998,2003.0301000000002,2052.4491,2254.2867,1819.9197000000001
4.479748010635376,2286.7992,2402.0235000000002,2097.1863000000003,2123.4564,2251.1655,2403.8442,2368.7307,1940.0859,2263.3902000000003,2312.2889999999998,2003.2902,2053.7496,2253.5064,1820.9601000000002
4.488803863525391,2287.3194000000003,2402.5437,2094.3252,2124.7569000000003,2250.6453,2404.3644000000004,2368.2105,1939.3056,2261.5695,2311.7688000000003,2003.8104,2053.7496,2253.5064,1822.2606
4.497783660888672,2286.5391,2403.0639,2094.0651000000003,2126.8377,2250.1251,2403.5841,2368.7307,1941.1263000000001,2261.5695,2312.8092,2004.3306,2054.5299,2254.8069000000005,1820.7
4.506793260574341,2287.3194000000003,2403.5841,2096.1459,2125.7973,2250.1251,2403.8442,2369.7711,1940.346,2262.0897,2313.5895,2002.77,2055.8304,2255.067,1819.1394
4.515789031982422,2286.7992,2403.8442,2095.6257,2124.2367,2251.4256,2404.8846,2369.7711,1940.0859,2263.9104,2312.5491,2003.5503,2055.5703000000003,2253.5064,1820.7
4.52478551864624,2287.5795,2402.8038,2096.9262,2124.4968000000003,2250.1251,2403.0639,2367.1701000000003,1940.6061000000002,2261.0493,2311.5087,2003.0301000000002,2052.4491,2253.2463000000002,1820.4399
4.533800840377808,2287.3194000000003,2402.5437,2097.1863000000003,2124.2367,2249.8650000000002,2404.1043,2368.7307,1940.8662,2261.0493,2312.8092,2004.3306,2053.4895,2255.067,1820.9601000000002
4.542730331420898,2288.0997,2402.2835999999998,2095.6257,2123.7165,2249.8650000000002,2404.1043,2370.2913000000003,1940.346,2263.6503,2312.8092,2004.5907000000002,2054.79,2254.0266,1821.4803000000002
4.551789045333862,2288.6199,2401.2432,2095.3656,2123.7165,2250.1251,2402.2835999999998,2370.2913000000003,1940.346,2263.6503,2309.9481,2003.2902,2054.5299,2252.7261,1820.9601000000002
4.56078839302063,2287.8396000000002,2401.7634000000003,2096.6661,2124.7569000000003,2250.3852,2402.0235000000002,2368.9908,1942.1667,2262.3498000000004,2309.4279,2002.77,2056.6107,2253.5064,1822.2606
4.569788932800293,2288.88,2402.8038,2097.4464000000003,2125.017,2250.6453,2403.8442,2369.2509,1941.3863999999999,2262.87,2312.5491,2003.5503,2054.5299,2253.2463000000002,1822.2606
4.578786134719849,2288.6199,2402.5437,2097.4464000000003,2124.4968000000003,2250.9054,2404.1043,2370.5514000000003,1940.6061000000002,2263.1301000000003,2313.3294,2004.5907000000002,2054.2698,2252.4660000000003,1821.2202
4.5877907276153564,2290.9608,2402.5437,2095.1055,2125.017,2249.6049,2405.6648999999998,2367.4302000000002,1941.6465,2261.8296,2312.5491,2003.0301000000002,2054.79,2254.2867,1820.4399
4.596794128417969,2290.7007,2402.5437,2096.1459,2124.4968000000003,2251.4256,2405.4048000000003,2368.9908,1940.8662,2262.6099,2313.0693,2004.3306,2051.9289,2254.0266,1819.6596
4.605790615081787,2289.9204,2401.5033,2096.6661,2123.1963,2251.4256,2404.1043,2368.2105,1940.346,2262.6099,2311.5087,2002.5099000000002,2051.4087,2252.9862,1819.9197000000001
4.6147541999816895,2288.6199,2401.2432,2094.5852999999997,2124.2367,2250.9054,2403.8442,2367.6902999999998,1940.8662,2263.1301000000003,2312.2889999999998,2001.7296000000001,2051.4087,2253.7664999999997,1820.4399
4.623793601989746,2289.6603,2403.0639,2095.8858,2125.017,2251.4256,2403.8442,2369.2509,1940.0859,2262.87,2312.8092,2003.0301000000002,2051.9289,2254.5468,1820.1798000000001
4.632788896560669,2289.6603,2403.8442,2097.1863000000003,2123.9766,2250.9054,2404.1043,2370.5514000000003,1939.5657,2262.6099,2311.7688000000003,2003.8104,2050.8885,2254.2867,1820.4399
4.641789197921753,2287.8396000000002,2402.2835999999998,2095.8858,2124.4968000000003,2249.0847000000003,2404.3644000000004,2369.7711,1940.8662,2262.6099,2312.0289000000002,2004.5907000000002,2051.6688,2254.0266,1821.2202
4.6507887840271,2287.8396000000002,2402.5437,2097.4464000000003,2124.4968000000003,2249.8650000000002,2404.6245,2370.0312,1940.6061000000002,2262.3498000000004,2312.8092,2004.5907000000002,2051.6688,2253.7664999999997,1820.7
4.65978741645813,2287.0593000000003,2402.0235000000002,2096.6661,2123.9766,2250.1251,2404.3644000000004,2370.0312,1940.6061000000002,2263.3902000000003,2312.0289000000002,2005.1109000000001,2051.9289,2253.2463000000002,1820.7
4.668789386749268,2287.0593000000003,2402.2835999999998,2095.6257,2125.017,2250.9054,2404.6245,2370.0312,1940.346,2262.3498000000004,2312.5491,2004.5907000000002,2050.8885,2253.2463000000002,1820.1798000000001
4.6777918338775635,2287.0593000000003,2403.0639,2095.3656,2124.7569000000003,2250.6453,2404.3644000000004,2369.5110000000004,1940.346,2262.6099,2313.0693,2004.8508,2054.0097,2253.7664999999997,1821.2202
4.686803102493286,2287.0593000000003,2402.8038,2095.3656,2124.4968000000003,2250.3852,2403.324,2368.7307,1940.0859,2263.3902000000003,2311.7688000000003,2004.0705,2054.79,2253.7664999999997,1821.4803000000002
4.695788145065308,2287.3194000000003,2401.7634000000003,2095.6257,2125.2771000000002,2251.4256,2403.5841,2368.9908,1940.346,2263.9104,2312.0289000000002,2004.0705,2053.2294,2253.2463000000002,1820.9601000000002
4.704787731170654,2289.1401,2402.8038,2096.1459,2123.4564,2250.1251,2404.1043,2368.4706,1940.6061000000002,2261.3094,2312.2889999999998,2003.0301000000002,2053.4895,2252.9862,1821.2202
4.7137837409973145,2287.5795,2402.0235000000002,2095.6257,2124.4968000000003,2251.4256,2403.324,2369.5110000000004,1941.1263000000001,2261.8296,2312.8092,2003.2902,2053.7496,2254.0266,1819.6596
4.7227232456207275,2288.3598,2402.0235000000002,2096.1459,2124.7569000000003,2250.9054,2403.5841,2368.2105,1940.0859,2261.8296,2313.5895,2003.0301000000002,2055.0501,2255.067,1819.9197000000001
4.731794834136963,2289.6603,2403.0639,2095.8858,2123.7165,2250.6453,2404.1043,2367.6902999999998,1939.8258,2261.5695,2311.7688000000003,2003.0301000000002,2054.0097,2256.1074,1821.7404
4.740789175033569,2288.3598,2403.0639,2096.4060000000004,2123.9766,2250.3852,2404.1043,2369.2509,1941.3863999999999,2262.3498000000004,2310.7284,2004.0705,2055.0501,2254.8069000000005,1822.0005
4.749789237976074,2286.5391,2402.5437,2096.6661,2124.7569000000003,2249.6049,2404.1043,2370.0312,1940.0859,2262.3498000000004,2312.2889999999998,2003.0301000000002,2054.79,2253.5064,1821.2202
4.758797645568848,2286.5391,2402.5437,2095.1055,2125.5372,2250.1251,2404.1043,2370.0312,1939.5657,2262.6099,2313.0693,2003.0301000000002,2054.2698,2254.0266,1822.0005
4.767798185348511,2286.5391,2403.0639,2096.1459,2125.017,2249.6049,2404.6245,2368.7307,1941.3863999999999,2263.3902000000003,2312.8092,2002.5099000000002,2054.0097,2253.7664999999997,1820.4399
4.776793718338013,2288.3598,2403.0639,2097.1863000000003,2125.7973,2250.1251,2404.6245,2370.2913000000003,1940.0859,2263.1301000000003,2312.0289000000002,2003.0301000000002,2054.79,2254.5468,1821.2202
4.785782098770142,2290.4406000000004,2402.2835999999998,2095.8858,2124.4968000000003,2251.6857,2403.0639,2368.2105,1939.3056,2261.8296,2312.0289000000002,2003.0301000000002,2052.4491,2253.5064,1821.4803000000002
4.79479718208313,2287.5795,2401.5033,2094.3252,2123.9766,2250.9054,2403.324,2365.8696,1941.1263000000001,2263.1301000000003,2312.8092,2001.9897,2050.8885,2252.2059,1820.1798000000001
4.803747653961182,2287.0593000000003,2402.0235000000002,2094.5852999999997,2125.017,2249.8650000000002,2405.1447000000003,2367.6902999999998,1941.3863999999999,2264.1705,2312.5491,2001.4695000000002,2052.1890000000003,2252.2059,1819.9197000000001
4.812793254852295,2288.0997,2402.2835999999998,2095.1055,2124.7569000000003,2251.1655,2404.6245,2369.5110000000004,1940.0859,2261.8296,2312.5491,2003.5503,2049.8481,2253.2463000000002,1820.7
4.8217933177948,2286.0189,2402.0235000000002,2097.9665999999997,2123.9766,2249.8650000000002,2404.6245,2368.4706,1940.6061000000002,2261.0493,2310.9885000000004,2001.7296000000001,2051.1486,2254.0266,1820.4399
4.83074164390564,2287.5795,2402.5437,2096.9262,2125.2771000000002,2249.3448000000003,2404.6245,2370.2913000000003,1941.3863999999999,2262.6099,2311.5087,2001.4695000000002,2054.0097,2253.7664999999997,1819.9197000000001
4.848802804946899,2286.7992,2403.0639,2096.4060000000004,2123.1963,2251.1655,2403.5841,2368.2105,1939.8258,2261.8296,2311.7688000000003,2002.5099000000002,2055.3102,2255.3271,1820.7
4.857819318771362,2287.0593000000003,2403.0639,2095.1055,2124.2367,2250.9054,2403.324,2368.4706,1940.6061000000002,2264.4306,2311.5087,2001.7296000000001,2054.2698,2255.067,1820.9601000000002
4.866813659667969,2288.3598,2403.0639,2094.8454,2124.2367,2250.3852,2403.324,2368.9908,1940.346,2264.1705,2312.2889999999998,2002.5099000000002,2053.2294,2253.5064,1820.7
4.875742197036743,2286.279,2402.2835999999998,2094.5852999999997,2123.7165,2249.3448000000003,2403.8442,2369.5110000000004,1940.6061000000002,2263.6503,2310.9885000000004,2004.8508,2052.1890000000003,2252.9862,1819.6596
4.884815454483032,2287.0593000000003,2403.0639,2096.4060000000004,2125.5372,2250.6453,2405.925,2368.9908,1940.6061000000002,2261.8296,2312.2889999999998,2003.5503,2053.7496,2252.4660000000003,1821.2202
4.893804550170898,2288.88,2402.8038,2096.4060000000004,2125.017,2250.1251,2405.6648999999998,2369.2509,1940.8662,2262.3498000000004,2312.5491,2003.8104,2053.7496,2252.7261,1820.7
4.902746915817261,2288.0997,2403.0639,2096.9262,2124.2367,2250.1251,2404.8846,2368.9908,1940.0859,2262.3498000000004,2311.5087,2004.0705,2055.5703000000003,2253.7664999999997,1819.9197000000001
4.9118030071258545,2287.0593000000003,2403.5841,2096.6661,2124.7569000000003,2251.1655,2404.3644000000004,2367.4302000000002,1939.8258,2261.5695,2311.7688000000003,2004.5907000000002,2054.2698,2254.0266,1821.2202
4.920796155929565,2287.0593000000003,2402.2835999999998,2096.1459,2125.017,2250.3852,2404.1043,2367.6902999999998,1940.0859,2262.0897,2312.8092,2004.8508,2052.9693,2254.0266,1820.7
4.929815769195557,2288.0997,2402.5437,2096.6661,2124.7569000000003,2249.6049,2405.925,2369.5110000000004,1939.3056,2263.3902000000003,2312.5491,2002.5099000000002,2051.6688,2254.2867,1819.6596
4.938795566558838,2287.8396000000002,2403.0639,2096.6661,2125.017,2250.6453,2406.1851,2369.7711,1940.6061000000002,2263.3902000000003,2311.5087,2002.2498,2052.1890000000003,2253.2463000000002,1821.2202
4.947752475738525,2287.0593000000003,2402.0235000000002,2095.1055,2123.4564,2249.8650000000002,2403.5841,2370.2913000000003,1940.6061000000002,2261.5695,2312.0289000000002,2004.0705,2053.7496,2253.7664999999997,1820.7
4.956788063049316,2286.5391,2403.0639,2096.9262,2123.1963,2250.1251,2405.6648999999998,2369.5110000000004,1940.346,2262.87,2311.2486,2004.0705,2053.7496,2255.067,1821.2202
4.9657979011535645,2286.7992,2402.2835999999998,2096.6661,2124.7569000000003,2251.6857,2404.1043,2368.2105,1941.3863999999999,2263.9104,2311.5087,2002.77,2054.0097,2254.0266,1820.7
4.9747912883758545,2285.7588,2401.7634000000003,2095.1055,2125.5372,2251.9458,2403.5841,2368.9908,1942.6869000000002,2264.1705,2313.3294,2003.8104,2055.0501,2253.2463000000002,1819.3995000000002
4.983807563781738,2286.5391,2402.5437,2096.1459,2125.017,2250.6453,2404.8846,2369.7711,1942.4268000000002,2263.3902000000003,2312.5491,2003.8104,2055.0501,2254.8069000000005,1818.8793
4.9928202629089355,2287.3194000000003,2403.0639,2096.1459,2124.7569000000003,2250.3852,2404.6245,2369.5110000000004,1941.3863999999999,2262.3498000000004,2311.5087,2002.2498,2052.9693,2255.3271,1819.1394
5.0017688274383545,2287.8396000000002,2402.0235000000002,2096.6661,2122.9362,2250.6453,2403.8442,2366.3898000000004,1940.6061000000002,2262.87,2313.0693,2004.5907000000002,2055.8304,2253.2463000000002,1819.6596
5.010797023773193,2287.8396000000002,2402.2835999999998,2096.6661,2124.2367,2251.1655,2403.0639,2367.4302000000002,1939.8258,2262.6099,2312.0289000000002,2002.77,2054.5299,2253.2463000000002,1821.2202
5.019814729690552,2286.0189,2401.2432,2095.8858,2124.7569000000003,2251.1655,2403.5841,2368.7307,1940.8662,2262.6099,2312.5491,2002.5099000000002,2055.0501,2253.7664999999997,1822.0005
5.028798580169678,2287.8396000000002,2401.7634000000003,2095.1055,2125.017,2249.8650000000002,2405.4048000000003,2369.2509,1940.8662,2263.1301000000003,2313.0693,2003.2902,2051.4087,2253.7664999999997,1821.2202
5.037810802459717,2289.1401,2403.0639,2095.8858,2125.017,2249.3448000000003,2404.6245,2369.5110000000004,1940.6061000000002,2263.9104,2312.8092,2003.5503,2051.6688,2252.9862,1820.4399
5.046791315078735,2287.8396000000002,2403.324,2096.4060000000004,2125.017,2250.6453,2404.1043,2368.2105,1941.1263000000001,2263.1301000000003,2312.2889999999998,2003.2902,2054.2698,2252.4660000000003,1820.4399
5.055807828903198,2286.0189,2401.7634000000003,2095.1055,2125.5372,2251.1655,2404.8846,2367.9504,1941.9066,2262.87,2312.8092,2004.5907000000002,2053.7496,2254.0266,1821.2202
5.06478214263916,2287.3194000000003,2403.8442,2094.8454,2124.2367,2249.3448000000003,2405.1447000000003,2369.5110000000004,1938.0051,2262.87,2312.5491,2002.2498,2054.5299,2253.7664999999997,1820.1798000000001
5.073818206787109,2286.5391,2402.8038,2095.8858,2124.2367,2249.8650000000002,2405.4048000000003,2369.5110000000004,1940.8662,2263.1301000000003,2312.5491,2001.7296000000001,2055.8304,2255.8473000000004,1820.9601000000002
5.082807779312134,2286.5391,2402.0235000000002,2096.6661,2124.7569000000003,2250.3852,2404.1043,2369.7711,1941.3863999999999,2262.3498000000004,2312.5491,2003.5503,2055.8304,2254.8069000000005,1821.4803000000002
5.091805696487427,2286.0189,2402.0235000000002,2096.4060000000004,2126.5776,2250.9054,2403.5841,2370.2913000000003,1939.8258,2262.0897,2311.2486,2004.8508,2054.0097,2252.4660000000003,1819.1394
5.1007936000823975,2286.279,2403.324,2096.1459,2126.3175,2250.6453,2404.1043,2368.9908,1940.0859,2263.3902000000003,2311.7688000000003,2004.3306,2055.8304,2253.2463000000002,1818.8793
5.109821557998657,2287.3194000000003,2404.1043,2095.6257,2123.4564,2250.3852,2404.6245,2367.4302000000002,1940.6061000000002,2263.3902000000003,2312.0289000000002,2003.5503,2056.0905000000002,2254.8069000000005,1820.9601000000002
5.11881422996521,2287.0593000000003,2402.8038,2095.8858,2123.1963,2250.6453,2404.8846,2368.2105,1941.1263000000001,2263.1301000000003,2311.2486,2005.6311,2055.3102,2255.3271,1821.2202
5.127841949462891,2287.3194000000003,2402.5437,2095.6257,2124.2367,2250.6453,2403.0639,2368.4706,1940.0859,2261.0493,2311.2486,2002.5099000000002,2055.3102,2252.2059,1820.4399
5.1368279457092285,2286.7992,2402.5437,2095.3656,2122.9362,2250.3852,2405.4048000000003,2368.4706,1941.1263000000001,2261.8296,2311.2486,2004.0705,2056.6107,2252.7261,1820.4399
5.145802736282349,2287.5795,2402.2835999999998,2095.8858,2124.4968000000003,2249.6049,2404.8846,2367.6902999999998,1941.3863999999999,2261.5695,2311.5087,2003.8104,2056.3506,2253.2463000000002,1819.3995000000002
5.154768943786621,2286.5391,2402.8038,2095.6257,2125.017,2250.6453,2403.324,2367.6902999999998,1940.8662,2262.3498000000004,2311.5087,2004.0705,2055.8304,2252.9862,1820.1798000000001
5.163812875747681,2286.7992,2402.5437,2095.6257,2123.7165,2251.4256,2404.6245,2368.7307,1940.0859,2263.1301000000003,2311.7688000000003,2003.5503,2054.79,2252.9862,1820.9601000000002
5.1728355884552,2288.88,2402.8038,2096.6661,2122.9362,2250.9054,2405.925,2369.5110000000004,1940.346,2262.3498000000004,2312.8092,2002.5099000000002,2052.4491,2253.5064,1819.6596
5.181793451309204,2288.88,2403.324,2095.1055,2124.4968000000003,2251.4256,2404.6245,2367.9504,1940.6061000000002,2262.87,2311.7688000000003,2003.0301000000002,2052.7092000000002,2254.0266,1821.4803000000002
5.190847635269165,2286.5391,2402.2835999999998,2094.5852999999997,2124.7569000000003,2250.9054,2405.925,2368.9908,1942.4268000000002,2262.87,2313.0693,2003.0301000000002,2050.1082,2253.7664999999997,1821.4803000000002
5.199836015701294,2286.7992,2402.5437,2096.6661,2124.2367,2250.1251,2404.8846,2369.2509,1942.6869000000002,2261.5695,2312.8092,2004.3306,2053.4895,2253.2463000000002,1822.0005
5.20887303352356,2286.7992,2402.8038,2097.9665999999997,2123.4564,2250.3852,2403.8442,2368.9908,1940.6061000000002,2261.8296,2311.5087,2004.8508,2055.5703000000003,2254.0266,1822.2606
5.217874765396118,2284.9785,2402.2835999999998,2096.6661,2124.4968000000003,2250.6453,2404.1043,2369.7711,1940.8662,2263.3902000000003,2313.3294,2004.8508,2056.6107,2255.067,1821.7404
5.226805210113525,2286.7992,2402.8038,2096.1459,2125.2771000000002,2250.3852,2404.3644000000004,2370.0312,1941.1263000000001,2263.1301000000003,2313.3294,2003.8104,2057.1309,2254.2867,1822.2606
5.235782623291016,2288.6199,2403.0639,2095.6257,2124.2367,2250.3852,2404.3644000000004,2369.2509,1941.1263000000001,2263.1301000000003,2310.4683,2004.5907000000002,2057.1309,2254.5468,1821.7404
5.244905471801758,2286.279,2402.5437,2095.6257,2124.2367,2251.4256,2405.925,2367.6902999999998,1940.0859,2263.1301000000003,2312.5491,2002.77,2055.8304,2254.0266,1819.1394
5.253785610198975,2286.5391,2402.5437,2094.3252,2124.4968000000003,2250.3852,2405.6648999999998,2368.4706,1940.346,2263.1301000000003,2313.8496,2003.8104,2056.6107,2253.5064,1820.4399
5.262767553329468,2289.1401,2401.2432,2094.8454,2124.7569000000003,2249.6049,2403.324,2367.9504,1940.346,2262.3498000000004,2312.8092,2004.3306,2056.6107,2253.5064,1819.9197000000001
5.271864891052246,2288.88,2400.9831000000004,2095.6257,2125.7973,2251.4256,2403.324,2366.91,1940.0859,2261.3094,2310.4683,2003.8104,2054.2698,2253.2463000000002,1819.1394
5.280766248703003,2286.7992,2402.8038,2096.4060000000004,2126.5776,2251.6857,2404.3644000000004,2367.6902999999998,1940.0859,2262.3498000000004,2309.9481,2004.5907000000002,2056.0905000000002,2253.5064,1819.3995000000002
5.2897422313690186,2286.279,2403.5841,2096.6661,2124.7569000000003,2249.8650000000002,2403.324,2368.4706,1939.8258,2263.6503,2311.7688000000003,2004.8508,2055.8304,2253.5064,1819.3995000000002
5.298783779144287,2286.0189,2401.2432,2095.3656,2123.9766,2249.8650000000002,2404.3644000000004,2368.9908,1941.9066,2262.0897,2311.2486,2003.2902,2058.1713,2255.5872000000004,1821.2202
5.307865858078003,2288.0997,2402.2835999999998,2095.6257,2124.4968000000003,2249.3448000000003,2404.1043,2368.4706,1940.6061000000002,2262.6099,2311.7688000000003,2002.5099000000002,2055.8304,2253.5064,1819.3995000000002
5.316780090332031,2286.279,2401.7634000000003,2096.6661,2123.9766,2249.8650000000002,2403.8442,2368.4706,1940.346,2264.1705,2313.5895,2004.3306,2055.8304,2252.4660000000003,1819.1394
5.325787305831909,2285.4987,2401.2432,2096.6661,2123.4564,2250.6453,2404.6245,2368.7307,1940.8662,2262.87,2312.2889999999998,2003.5503,2056.8708,2254.5468,1820.7
5.334798574447632,2286.5391,2402.0235000000002,2096.1459,2124.7569000000003,2250.1251,2404.6245,2368.9908,1940.8662,2263.6503,2309.9481,2002.77,2055.5703000000003,2255.3271,1821.4803000000002
5.3438193798065186,2287.5795,2402.8038,2096.1459,2125.017,2249.6049,2404.3644000000004,2368.2105,1940.0859,2263.6503,2311.7688000000003,2003.5503,2054.5299,2253.2463000000002,1820.7
5.352787733078003,2287.5795,2402.5437,2094.0651000000003,2124.2367,2251.4256,2405.1447000000003,2366.91,1939.8258,2261.8296,2314.3698000000004,2002.77,2054.0097,2254.5468,1819.3995000000002
5.361796140670776,2287.5795,2402.8038,2096.1459,2124.4968000000003,2250.3852,2405.1447000000003,2368.4706,1940.0859,2262.3498000000004,2310.4683,2003.0301000000002,2053.4895,2253.7664999999997,1820.4399
5.370878219604492,2286.7992,2402.5437,2095.8858,2124.2367,2250.6453,2405.4048000000003,2369.7711,1941.3863999999999,2261.8296,2312.5491,2003.2902,2052.7092000000002,2253.5064,1820.7
5.3799073696136475,2287.0593000000003,2403.0639,2096.4060000000004,2124.2367,2250.9054,2405.4048000000003,2369.7711,1941.3863999999999,2262.6099,2313.8496,2002.77,2052.7092000000002,2254.8069000000005,1820.4399
5.388807535171509,2288.88,2403.324,2097.7065,2123.7165,2250.3852,2405.1447000000003,2369.5110000000004,1940.346,2262.3498000000004,2312.0289000000002,2001.7296000000001,2051.9289,2254.2867,1820.9601000000002
5.397900104522705,2288.88,2403.324,2096.4060000000004,2123.4564,2250.1251,2404.8846,2369.5110000000004,1941.6465,2261.8296,2312.0289000000002,2003.5503,2054.0097,2254.2867,1821.7404
5.40689754486084,2287.5795,2404.1043,2095.8858,2124.2367,2250.1251,2404.6245,2368.9908,1941.6465,2262.0897,2313.0693,2003.8104,2054.79,2254.5468,1820.7
5.415867328643799,2286.279,2402.8038,2097.4464000000003,2125.017,2250.3852,2404.3644000000004,2369.5110000000004,1941.6465,2263.1301000000003,2311.5087,2003.0301000000002,2054.5299,2255.067,1820.4399
5.424884080886841,2288.88,2403.324,2096.4060000000004,2124.4968000000003,2251.1655,2404.3644000000004,2367.9504,1940.346,2262.0897,2311.5087,2003.8104,2055.3102,2253.7664999999997,1819.3995000000002
5.4339141845703125,2288.88,2404.1043,2096.9262,2125.017,2250.3852,2404.3644000000004,2368.4706,1940.8662,2263.1301000000003,2314.1097,2003.8104,2055.0501,2253.5064,1818.6192
5.442863941192627,2288.3598,2402.2835999999998,2097.4464000000003,2124.4968000000003,2250.1251,2404.3644000000004,2368.4706,1941.3863999999999,2263.3902000000003,2312.0289000000002,2003.0301000000002,2055.0501,2254.5468,1819.6596
5.451840877532959,2287.0593000000003,2401.5033,2095.6257,2123.9766,2251.1655,2404.1043,2366.91,1940.6061000000002,2263.1301000000003,2310.9885000000004,2002.2498,2051.4087,2254.0266,1819.3995000000002
5.460857629776001,2286.279,2402.0235000000002,2095.6257,2123.7165,2251.4256,2404.1043,2366.6499,1939.5657,2262.6099,2312.8092,2002.2498,2052.1890000000003,2252.9862,1819.6596
5.4698402881622314,2287.5795,2402.2835999999998,2096.6661,2124.2367,2249.6049,2404.8846,2367.6902999999998,1939.5657,2261.0493,2313.3294,2002.77,2051.1486,2253.5064,1819.9197000000001
5.478827238082886,2287.0593000000003,2403.8442,2096.6661,2125.2771000000002,2251.4256,2404.1043,2368.2105,1940.0859,2263.1301000000003,2311.2486,2002.5099000000002,2053.2294,2254.0266,1819.3995000000002
5.487840890884399,2288.3598,2403.324,2096.4060000000004,2125.5372,2251.4256,2404.6245,2369.2509,1940.346,2261.5695,2311.5087,2002.2498,2053.7496,2254.5468,1819.3995000000002
5.4967803955078125,2288.3598,2402.2835999999998,2096.6661,2124.4968000000003,2250.3852,2404.8846,2370.2913000000003,1940.8662,2261.8296,2312.8092,2004.5907000000002,2053.7496,2254.8069000000005,1820.7
5.505866765975952,2287.8396000000002,2402.5437,2096.6661,2122.9362,2251.6857,2405.1447000000003,2368.7307,1939.5657,2262.87,2312.5491,2004.3306,2052.9693,2254.5468,1820.1798000000001
5.514802694320679,2286.279,2402.8038,2094.8454,2123.7165,2251.9458,2405.4048000000003,2367.9504,1940.346,2262.6099,2312.2889999999998,2004.5907000000002,2053.7496,2254.8069000000005,1819.6596
5.5238356590271,2286.279,2401.7634000000003,2094.3252,2125.7973,2250.1251,2404.6245,2368.2105,1940.8662,2262.87,2313.0693,2004.5907000000002,2055.0501,2253.5064,1820.1798000000001
5.532847166061401,2287.0593000000003,2401.7634000000003,2095.8858,2125.5372,2249.0847000000003,2404.1043,2369.5110000000004,1939.5657,2262.87,2312.0289000000002,2003.5503,2053.7496,2252.7261,1819.6596
5.5418384075164795,2288.3598,2404.3644000000004,2095.8858,2125.2771000000002,2250.9054,2404.1043,2367.6902999999998,1941.1263000000001,2263.3902000000003,2312.2889999999998,2004.3306,2057.9112,2255.3271,1819.9197000000001
5.5508410930633545,2290.4406000000004,2403.0639,2094.5852999999997,2125.5372,2249.6049,2403.0639,2367.4302000000002,1940.8662,2263.6503,2310.7284,2003.5503,2056.3506,2252.2059,1821.2202
5.5598695278167725,2289.1401,2401.7634000000003,2095.3656,2124.2367,2248.8246,2403.8442,2368.2105,1940.0859,2263.1301000000003,2309.9481,2003.0301000000002,2055.5703000000003,2251.6857,1821.4803000000002
5.568842172622681,2288.6199,2402.5437,2095.3656,2123.9766,2251.1655,2403.324,2368.4706,1939.3056,2263.3902000000003,2312.0289000000002,2002.77,2053.7496,2253.2463000000002,1820.7
5.577847480773926,2289.9204,2403.324,2095.1055,2125.017,2252.2059,2403.0639,2368.4706,1939.8258,2264.1705,2313.3294,2004.8508,2053.4895,2253.7664999999997,1820.7
5.586852312088013,2290.4406000000004,2403.0639,2095.6257,2124.4968000000003,2249.6049,2404.3644000000004,2369.5110000000004,1940.0859,2262.0897,2312.5491,2003.8104,2052.7092000000002,2253.2463000000002,1820.7
5.595874547958374,2288.88,2402.8038,2096.4060000000004,2124.4968000000003,2251.4256,2404.3644000000004,2370.0312,1940.0859,2262.6099,2311.7688000000003,2002.77,2051.9289,2254.0266,1819.9197000000001
5.604839086532593,2290.1805,2403.324,2097.1863000000003,2125.5372,2250.6453,2404.8846,2368.9908,1939.8258,2262.3498000000004,2311.7688000000003,2002.2498,2050.3683,2252.9862,1819.1394
5.613845109939575,2288.88,2403.5841,2096.1459,2126.5776,2249.8650000000002,2404.8846,2369.7711,1941.1263000000001,2263.1301000000003,2312.8092,2003.5503,2049.588,2252.9862,1819.6596
5.62283730506897,2289.6603,2403.324,2095.6257,2125.7973,2249.6049,2404.3644000000004,2369.5110000000004,1941.3863999999999,2262.6099,2311.7688000000003,2004.0705,2051.1486,2253.2463000000002,1820.4399
5.631849050521851,2290.7007,2403.0639,2095.6257,2124.4968000000003,2249.6049,2404.3644000000004,2368.2105,1940.346,2261.5695,2311.5087,2004.0705,2050.3683,2254.0266,1819.9197000000001
5.640826463699341,2289.6603,2402.5437,2096.4060000000004,2124.4968000000003,2250.3852,2404.3644000000004,2368.2105,1940.346,2262.0897,2312.2889999999998,2004.5907000000002,2051.1486,2254.2867,1819.9197000000001
5.649805307388306,2289.1401,2403.0639,2095.8858,2125.017,2250.6453,2405.4048000000003,2368.2105,1941.3863999999999,2261.8296,2312.2889999999998,2004.0705,2051.1486,2255.067,1819.6596
5.658766984939575,2289.1401,2402.0235000000002,2096.6661,2123.1963,2249.8650000000002,2403.0639,2368.4706,1940.346,2263.1301000000003,2312.8092,2005.1109000000001,2052.7092000000002,2252.9862,1821.4803000000002
5.66791558265686,2287.5795,2401.5033,2097.1863000000003,2122.9362,2250.1251,2404.6245,2367.6902999999998,1939.5657,2263.1301000000003,2311.7688000000003,2003.2902,2052.1890000000003,2253.2463000000002,1819.9197000000001
5.676888942718506,2287.3194000000003,2402.0235000000002,2096.4060000000004,2124.2367,2250.1251,2405.1447000000003,2367.4302000000002,1940.8662,2263.1301000000003,2311.7688000000003,2003.2902,2051.9289,2253.7664999999997,1819.6596
5.685877323150635,2288.88,2402.8038,2096.9262,2124.2367,2250.1251,2403.8442,2367.9504,1939.8258,2262.87,2312.5491,2003.8104,2050.6284,2253.2463000000002,1821.7404
5.694910526275635,2288.3598,2402.8038,2096.1459,2124.2367,2250.1251,2404.3644000000004,2369.7711,1940.8662,2262.87,2313.3294,2004.5907000000002,2050.6284,2254.2867,1822.2606
5.7038774490356445,2288.3598,2402.8038,2095.3656,2124.7569000000003,2250.3852,2404.1043,2370.0312,1941.3863999999999,2262.3498000000004,2313.8496,2003.5503,2051.4087,2255.3271,1820.9601000000002
5.71289587020874,2288.0997,2402.0235000000002,2095.3656,2125.2771000000002,2250.9054,2403.5841,2370.2913000000003,1939.8258,2262.87,2311.2486,2003.0301000000002,2050.1082,2254.5468,1820.7
5.721883058547974,2288.3598,2403.5841,2096.9262,2123.7165,2250.1251,2405.6648999999998,2368.2105,1941.3863999999999,2262.0897,2310.7284,2003.8104,2053.4895,2254.0266,1820.1798000000001
5.7308971881866455,2287.8396000000002,2403.5841,2096.4060000000004,2124.2367,2250.3852,2404.6245,2367.6902999999998,1940.6061000000002,2262.3498000000004,2312.8092,2003.2902,2052.4491,2253.2463000000002,1822.2606
5.7398765087127686,2287.0593000000003,2402.5437,2096.1459,2124.4968000000003,2249.8650000000002,2403.324,2368.4706,1940.346,2264.4306,2311.7688000000003,2004.0705,2055.3102,2253.5064,1821.7404
5.748883962631226,2287.8396000000002,2402.8038,2096.4060000000004,2124.2367,2250.1251,2405.4048000000003,2368.7307,1940.346,2263.6503,2310.9885000000004,2004.5907000000002,2053.7496,2253.7664999999997,1819.3995000000002
5.757905721664429,2287.3194000000003,2403.0639,2096.1459,2124.2367,2250.6453,2406.4452,2369.5110000000004,1940.0859,2262.0897,2311.7688000000003,2004.3306,2052.4491,2254.2867,1819.9197000000001
5.7669103145599365,2287.5795,2403.324,2096.4060000000004,2124.2367,2250.3852,2403.324,2368.4706,1939.0455000000002,2261.3094,2311.7688000000003,2002.5099000000002,2052.7092000000002,2253.5064,1820.1798000000001
5.775885581970215,2289.1401,2404.8846,2096.4060000000004,2124.2367,2249.6049,2404.3644000000004,2366.91,1941.1263000000001,2262.6099,2312.8092,2004.0705,2050.8885,2253.2463000000002,1820.1798000000001
5.784884929656982,2288.6199,2403.5841,2096.9262,2123.7165,2251.1655,2405.4048000000003,2367.6902999999998,1940.6061000000002,2261.8296,2310.7284,2003.0301000000002,2049.8481,2253.5064,1820.4399
5.793881893157959,2287.8396000000002,2402.8038,2096.9262,2124.2367,2252.4660000000003,2405.1447000000003,2368.4706,1941.1263000000001,2263.1301000000003,2309.9481,2004.0705,2049.588,2252.2059,1820.1798000000001
5.802807807922363,2288.0997,2404.3644000000004,2097.9665999999997,2125.017,2250.6453,2405.4048000000003,2369.2509,1942.1667,2262.87,2311.2486,2004.5907000000002,2049.8481,2252.4660000000003,1821.4803000000002
5.811880350112915,2287.0593000000003,2404.3644000000004,2097.7065,2124.7569000000003,2249.0847000000003,2405.1447000000003,2370.0312,1942.1667,2262.0897,2312.5491,2003.5503,2050.1082,2255.3271,1822.0005
5.820822715759277,2287.3194000000003,2402.5437,2097.4464000000003,2124.4968000000003,2249.8650000000002,2404.6245,2368.9908,1941.1263000000001,2263.1301000000003,2312.0289000000002,2003.8104,2052.9693,2255.3271,1820.4399
5.829834222793579,2288.88,2402.5437,2097.1863000000003,2124.2367,2251.1655,2404.3644000000004,2369.2509,1940.6061000000002,2263.6503,2312.5491,2003.5503,2052.4491,2253.5064,1820.1798000000001
5.838842868804932,2286.7992,2402.8038,2096.4060000000004,2125.2771000000002,2249.6049,2404.1043,2370.0312,1941.6465,2261.8296,2313.0693,2003.8104,2053.4895,2255.067,1819.6596
5.856832504272461,2288.88,2401.7634000000003,2096.6661,2123.9766,2250.6453,2402.8038,2367.9504,1940.6061000000002,2262.6099,2312.8092,2005.1109000000001,2052.4491,2253.7664999999997,1822.0005
5.865781307220459,2287.5795,2401.7634000000003,2095.6257,2123.4564,2250.1251,2403.0639,2369.5110000000004,1939.5657,2262.0897,2312.8092,2003.2902,2051.6688,2254.0266,1820.4399
5.8749189376831055,2286.5391,2402.8038,2095.3656,2124.4968000000003,2249.0847000000003,2404.1043,2370.0312,1940.6061000000002,2262.87,2312.8092,2002.5099000000002,2051.6688,2252.9862,1818.6192
5.883821725845337,2287.8396000000002,2402.0235000000002,2096.4060000000004,2124.4968000000003,2251.1655,2404.1043,2368.9908,1940.8662,2263.6503,2312.8092,2003.5503,2052.7092000000002,2253.5064,1820.4399
5.892845392227173,2288.3598,2401.5033,2096.4060000000004,2123.7165,2252.7261,2404.6245,2368.4706,1939.3056,2262.6099,2312.8092,2004.0705,2050.8885,2254.0266,1821.2202
5.901832342147827,2287.3194000000003,2403.5841,2096.4060000000004,2126.8377,2249.0847000000003,2405.1447000000003,2367.6902999999998,1941.1263000000001,2262.6099,2310.4683,2001.9897,2050.3683,2254.2867,1818.8793
5.91083550453186,2287.5795,2402.8038,2095.6257,2125.2771000000002,2250.3852,2405.4048000000003,2367.9504,1940.346,2263.1301000000003,2310.2082,2002.2498,2049.8481,2254.8069000000005,1819.9197000000001
5.919845819473267,2287.0593000000003,2402.5437,2096.4060000000004,2123.4564,2250.3852,2404.3644000000004,2368.4706,1939.8258,2262.3498000000004,2311.5087,2003.5503,2051.4087,2254.2867,1819.3995000000002
5.9288060665130615,2287.0593000000003,2402.8038,2097.1863000000003,2124.4968000000003,2250.6453,2404.1043,2367.9504,1939.3056,2261.0493,2312.0289000000002,2003.2902,2049.588,2254.8069000000005,1818.8793
5.937845230102539,2286.5391,2402.2835999999998,2096.1459,2125.7973,2251.4256,2404.6245,2367.6902999999998,1940.346,2262.6099,2312.2889999999998,2004.0705,2050.1082,2255.8473000000004,1820.1798000000001
5.946756362915039,2288.0997,2402.8038,2095.8858,2124.7569000000003,2251.1655,2404.6245,2367.4302000000002,1940.8662,2263.1301000000003,2312.2889999999998,2004.0705,2052.1890000000003,2254.2867,1820.4399
5.955895900726318,2288.0997,2402.8038,2096.6661,2123.4564,2250.9054,2403.5841,2369.2509,1939.5657,2262.87,2311.2486,2004.3306,2053.4895,2252.7261,1819.9197000000001
5.964854717254639,2287.5795,2402.8038,2097.1863000000003,2123.1963,2250.3852,2405.925,2368.2105,1940.8662,2261.8296,2313.0693,2003.0301000000002,2051.4087,2254.2867,1819.6596
5.973895788192749,2287.3194000000003,2403.0639,2096.6661,2124.2367,2250.3852,2405.925,2368.9908,1941.1263000000001,2262.87,2312.8092,2003.8104,2049.8481,2255.067,1819.6596
5.983092546463013,2288.0997,2403.324,2097.4464000000003,2124.2367,2251.1655,2403.5841,2369.2509,1939.8258,2263.6503,2312.2889999999998,2003.8104,2052.4491,2253.2463000000002,1820.9601000000002
5.9918296337127686,2286.7992,2403.0639,2097.9665999999997,2122.9362,2251.4256,2403.0639,2369.2509,1941.1263000000001,2263.1301000000003,2313.0693,2004.3306,2053.2294,2253.5064,1820.9601000000002
6.000873804092407,2286.7992,2403.324,2096.4060000000004,2123.9766,2250.6453,2404.3644000000004,2368.9908,1941.9066,2263.1301000000003,2313.0693,2004.8508,2053.4895,2255.3271,1820.9601000000002
6.009894132614136,2289.6603,2403.8442,2095.6257,2125.7973,2249.8650000000002,2403.8442,2367.9504,1939.5657,2263.1301000000003,2312.2889999999998,2003.2902,2053.4895,2254.8069000000005,1820.7
6.018763303756714,2287.3194000000003,2402.5437,2095.1055,2124.4968000000003,2250.3852,2405.4048000000003,2368.4706,1942.1667,2263.1301000000003,2312.2889999999998,2002.5099000000002,2054.0097,2254.0266,1819.3995000000002
6.027847766876221,2290.4406000000004,2402.8038,2093.2848000000004,2125.017,2250.3852,2405.925,2367.6902999999998,1940.6061000000002,2263.6503,2312.0289000000002,2003.2902,2053.2294,2253.7664999999997,1820.7
6.0368993282318115,2292.0012,2402.0235000000002,2094.0651000000003,2124.7569000000003,2250.3852,2404.3644000000004,2367.9504,1938.7854,2263.1301000000003,2312.2889999999998,2003.2902,2055.8304,2254.2867,1820.9601000000002
6.045886993408203,2291.2209000000003,2401.5033,2095.3656,2123.7165,2250.9054,2404.3644000000004,2368.4706,1939.5657,2261.3094,2312.5491,2002.5099000000002,2053.4895,2254.8069000000005,1819.1394
6.0548927783966064,2290.7007,2402.2835999999998,2095.6257,2123.9766,2251.1655,2405.1447000000003,2368.2105,1941.3863999999999,2261.5695,2312.8092,2003.2902,2050.3683,2254.5468,1819.9197000000001
6.0638203620910645,2291.481,2401.7634000000003,2096.6661,2124.4968000000003,2250.1251,2404.1043,2367.4302000000002,1941.1263000000001,2262.0897,2312.8092,2003.2902,2052.1890000000003,2254.5468,1821.4803000000002
6.072814702987671,2291.481,2401.2432,2097.4464000000003,2123.9766,2249.6049,2404.3644000000004,2369.5110000000004,1939.8258,2260.7892,2312.5491,2003.0301000000002,2051.6688,2254.0266,1820.1798000000001
6.0818095207214355,2292.0012,2404.6245,2096.4060000000004,2123.4564,2251.1655,2404.1043,2368.2105,1939.8258,2262.6099,2312.0289000000002,2004.0705,2051.9289,2252.7261,1821.7404
6.090768575668335,2290.1805,2403.5841,2096.9262,2125.5372,2250.3852,2403.5841,2366.6499,1939.0455000000002,2263.6503,2310.7284,2003.5503,2051.1486,2253.7664999999997,1821.4803000000002
6.099820613861084,2289.4002,2402.0235000000002,2097.1863000000003,2125.2771000000002,2250.6453,2403.8442,2368.2105,1938.7854,2262.87,2310.7284,2004.3306,2051.1486,2253.7664999999997,1821.2202
6.108820915222168,2291.2209000000003,2402.0235000000002,2095.8858,2123.9766,2251.4256,2403.5841,2368.7307,1939.8258,2262.0897,2312.0289000000002,2004.0705,2050.8885,2253.5064,1820.4399
6.117768049240112,2290.1805,2402.0235000000002,2096.1459,2125.017,2250.6453,2403.8442,2367.9504,1941.9066,2263.9104,2312.8092,2004.3306,2052.1890000000003,2254.5468,1819.6596
6.126816749572754,2288.88,2402.8038,2096.9262,2125.5372,2250.1251,2404.3644000000004,2368.2105,1940.8662,2263.6503,2312.2889999999998,2003.2902,2050.6284,2255.3271,1820.1798000000001
6.135824918746948,2288.3598,2403.0639,2095.8858,2125.017,2250.1251,2404.3644000000004,2368.4706,1939.8258,2263.1301000000003,2312.5491,2004.0705,2050.6284,2254.2867,1820.4399
6.144821643829346,2288.3598,2403.0639,2097.9665999999997,2126.0574,2250.6453,2404.8846,2366.3898000000004,1939.5657,2263.1301000000003,2312.5491,2002.77,2051.1486,2254.5468,1820.7
6.153762102127075,2287.0593000000003,2403.0639,2097.4464000000003,2126.0574,2250.6453,2405.4048000000003,2367.6902999999998,1940.8662,2262.6099,2312.2889999999998,2003.8104,2050.6284,2255.067,1821.4803000000002
6.162774324417114,2286.5391,2403.0639,2097.1863000000003,2125.7973,2250.3852,2404.3644000000004,2367.6902999999998,1941.1263000000001,2262.3498000000004,2312.2889999999998,2003.8104,2051.6688,2254.5468,1820.1798000000001
6.171820402145386,2286.279,2402.8038,2096.9262,2126.3175,2250.1251,2403.5841,2366.91,1940.346,2262.87,2312.2889999999998,2002.77,2051.4087,2253.7664999999997,1819.6596
6.180811882019043,2287.5795,2402.8038,2096.4060000000004,2126.0574,2250.3852,2403.8442,2367.9504,1940.0859,2262.6099,2312.0289000000002,2003.8104,2053.2294,2253.7664999999997,1821.2202
6.18981146812439,2289.1401,2402.8038,2095.6257,2125.7973,2251.9458,2404.1043,2369.2509,1940.0859,2261.5695,2312.2889999999998,2003.0301000000002,2051.1486,2254.0266,1821.2202
6.198775053024292,2288.0997,2402.5437,2095.1055,2123.9766,2250.1251,2405.4048000000003,2367.4302000000002,1940.346,2263.1301000000003,2312.5491,2003.2902,2050.8885,2253.5064,1820.1798000000001
6.207813262939453,2291.481,2403.324,2095.1055,2123.4564,2249.3448000000003,2405.1447000000003,2368.4706,1940.0859,2263.1301000000003,2311.7688000000003,2003.8104,2050.3683,2253.2463000000002,1820.7
6.2168238162994385,2290.7007,2403.0639,2096.6661,2124.7569000000003,2250.3852,2403.5841,2368.9908,1940.6061000000002,2262.0897,2312.8092,2003.5503,2050.8885,2254.2867,1821.2202
6.225815773010254,2289.4002,2402.8038,2097.7065,2125.017,2250.6453,2404.3644000000004,2368.7307,1940.0859,2261.3094,2312.2889999999998,2002.2498,2050.3683,2254.0266,1820.9601000000002
6.234823226928711,2289.6603,2402.5437,2095.3656,2125.017,2250.9054,2405.4048000000003,2368.9908,1940.346,2262.6099,2309.688,2003.2902,2050.8885,2253.7664999999997,1820.9601000000002
6.243799448013306,2289.6603,2402.5437,2094.8454,2124.4968000000003,2251.1655,2404.1043,2368.4706,1940.6061000000002,2262.0897,2310.2082,2004.3306,2051.1486,2255.067,1821.2202
6.252832651138306,2287.8396000000002,2403.324,2098.2267,2123.9766,2250.1251,2405.6648999999998,2368.7307,1940.6061000000002,2264.4306,2312.8092,2004.5907000000002,2050.8885,2255.3271,1821.4803000000002
6.261814832687378,2288.88,2403.324,2098.4868,2125.2771000000002,2251.4256,2404.6245,2368.7307,1940.6061000000002,2263.3902000000003,2312.0289000000002,2003.5503,2051.6688,2253.7664999999997,1820.4399
6.270823001861572,2288.3598,2402.5437,2096.6661,2126.0574,2251.6857,2403.8442,2368.7307,1938.7854,2262.0897,2313.0693,2004.5907000000002,2050.3683,2253.7664999999997,1820.1798000000001
6.279820442199707,2287.8396000000002,2402.8038,2095.6257,2125.017,2250.3852,2404.1043,2369.2509,1938.7854,2262.87,2312.5491,2005.6311,2050.8885,2254.2867,1822.0005
6.288817644119263,2288.6199,2403.5841,2096.9262,2124.2367,2250.6453,2404.3644000000004,2369.5110000000004,1940.0859,2262.6099,2311.7688000000003,2004.3306,2050.1082,2252.9862,1821.2202
6.297822713851929,2288.6199,2403.0639,2097.7065,2125.2771000000002,2250.9054,2404.3644000000004,2369.7711,1940.6061000000002,2262.6099,2313.0693,2003.2902,2051.1486,2252.4660000000003,1818.0990000000002
6.306774616241455,2288.6199,2402.2835999999998,2097.1863000000003,2125.2771000000002,2249.6049,2404.6245,2368.9908,1940.346,2263.3902000000003,2312.8092,2003.0301000000002,2053.2294,2253.2463000000002,1818.0990000000002
6.315900564193726,2288.6199,2403.5841,2097.1863000000003,2125.2771000000002,2251.4256,2404.3644000000004,2367.6902999999998,1941.9066,2263.1301000000003,2312.8092,2004.0705,2050.3683,2252.4660000000003,1820.7
6.324895620346069,2290.1805,2403.8442,2097.1863000000003,2124.2367,2251.1655,2404.8846,2367.6902999999998,1939.5657,2261.8296,2311.7688000000003,2002.77,2049.8481,2253.2463000000002,1819.1394
6.333850622177124,2289.6603,2402.8038,2096.6661,2123.4564,2250.1251,2405.1447000000003,2368.4706,1940.346,2262.0897,2312.2889999999998,2003.5503,2051.4087,2255.3271,1819.3995000000002
6.3428871631622314,2289.4002,2402.2835999999998,2096.1459,2124.7569000000003,2250.3852,2404.6245,2368.2105,1940.8662,2262.87,2313.5895,2004.0705,2052.1890000000003,2253.5064,1820.4399
6.351880788803101,2290.1805,2403.324,2095.8858,2125.7973,2251.6857,2404.3644000000004,2367.4302000000002,1940.346,2262.87,2312.0289000000002,2003.5503,2051.4087,2252.7261,1820.7
6.360889196395874,2289.9204,2403.5841,2096.1459,2125.017,2251.1655,2404.8846,2367.9504,1940.8662,2263.3902000000003,2310.7284,2004.3306,2053.7496,2254.8069000000005,1820.4399
6.369894027709961,2288.0997,2403.324,2095.1055,2123.9766,2249.8650000000002,2404.8846,2368.4706,1939.5657,2262.87,2311.5087,2003.5503,2053.2294,2254.2867,1819.9197000000001
6.378820180892944,2290.9608,2402.0235000000002,2096.4060000000004,2125.2771000000002,2251.1655,2403.8442,2368.2105,1941.6465,2261.5695,2312.2889999999998,2003.2902,2054.0097,2252.9862,1820.4399
6.3878397941589355,2292.5214,2402.5437,2095.6257,2123.9766,2249.6049,2404.6245,2367.9504,1940.8662,2262.6099,2312.2889999999998,2003.0301000000002,2050.6284,2254.0266,1820.4399
6.396824598312378,2289.9204,2402.8038,2094.5852999999997,2123.9766,2249.3448000000003,2404.8846,2368.2105,1940.0859,2264.1705,2312.5491,2003.2902,2051.1486,2254.2867,1820.4399
6.405834436416626,2289.1401,2403.324,2094.8454,2124.2367,2251.4256,2403.0639,2367.6902999999998,1939.8258,2262.87,2312.5491,2002.2498,2051.4087,2254.0266,1820.1798000000001
6.414774179458618,2288.3598,2402.8038,2094.8454,2124.2367,2251.6857,2403.324,2367.6902999999998,1941.3863999999999,2262.6099,2312.5491,2002.5099000000002,2048.8077,2253.5064,1821.2202
6.42382025718689,2288.6199,2402.0235000000002,2095.3656,2125.5372,2249.8650000000002,2405.4048000000003,2368.4706,1941.6465,2262.87,2312.8092,2003.5503,2048.5476000000003,2253.2463000000002,1822.0005
6.432821750640869,2287.0593000000003,2403.5841,2096.1459,2125.017,2251.1655,2403.324,2369.7711,1940.346,2262.3498000000004,2312.0289000000002,2003.8104,2051.9289,2253.5064,1819.9197000000001
6.441835880279541,2288.88,2403.324,2096.6661,2124.7569000000003,2250.3852,2404.1043,2368.9908,1940.346,2261.8296,2311.7688000000003,2003.2902,2051.9289,2254.8069000000005,1821.4803000000002
6.450828552246094,2290.9608,2403.0639,2097.7065,2124.7569000000003,2250.6453,2404.8846,2368.7307,1940.6061000000002,2263.1301000000003,2312.0289000000002,2003.5503,2050.6284,2255.8473000000004,1822.0005
6.459836006164551,2289.4002,2403.8442,2097.4464000000003,2125.017,2252.2059,2404.1043,2368.4706,1940.6061000000002,2263.6503,2311.7688000000003,2003.0301000000002,2052.1890000000003,2255.3271,1819.9197000000001
6.468839645385742,2289.1401,2403.5841,2095.6257,2125.017,2251.4256,2404.3644000000004,2368.4706,1940.6061000000002,2262.0897,2311.7688000000003,2002.5099000000002,2050.6284,2253.7664999999997,1818.3591
6.477835655212402,2289.1401,2401.5033,2094.8454,2124.2367,2250.3852,2404.8846,2368.7307,1940.8662,2262.0897,2312.0289000000002,2003.8104,2051.4087,2253.7664999999997,1820.7
6.486818552017212,2287.5795,2401.2432,2096.1459,2123.9766,2250.6453,2404.3644000000004,2369.2509,1940.346,2262.3498000000004,2311.5087,2003.2902,2052.9693,2254.2867,1822.2606
6.495889902114868,2288.88,2402.2835999999998,2096.6661,2124.2367,2249.8650000000002,2404.8846,2370.2913000000003,1941.6465,2264.1705,2312.5491,2004.5907000000002,2051.6688,2254.0266,1820.7
6.5048887729644775,2290.9608,2401.5033,2096.1459,2123.9766,2249.6049,2404.8846,2370.0312,1940.8662,2264.1705,2313.0693,2002.77,2051.6688,2254.0266,1820.9601000000002
6.513850688934326,2289.9204,2401.7634000000003,2094.8454,2124.2367,2250.1251,2404.1043,2370.2913000000003,1940.346,2262.6099,2312.2889999999998,2001.9897,2050.8885,2255.067,1821.2202
6.522883415222168,2289.4002,2402.2835999999998,2096.4060000000004,2123.9766,2250.3852,2404.1043,2368.2105,1939.5657,2262.3498000000004,2311.5087,2002.2498,2050.1082,2254.0266,1821.2202
6.531939268112183,2289.4002,2402.8038,2096.6661,2125.017,2250.6453,2405.925,2367.4302000000002,1940.6061000000002,2263.3902000000003,2312.0289000000002,2002.77,2049.8481,2253.5064,1820.1798000000001
6.540890455245972,2288.88,2402.8038,2095.8858,2125.017,2250.6453,2405.4048000000003,2368.4706,1940.0859,2263.1301000000003,2312.2889999999998,2003.5503,2051.1486,2254.2867,1820.4399
