Timestamp,F3,FC5,AF3,F7,T7,P7,O1,O2,P8,T8,F8,AF4,FC6,F4
0.0,4497.6900000000005,4701.6900000000005,4123.35,4194.24,4408.4400000000005,4707.3,4642.53,3802.56,4435.47,4529.31,3934.65,3983.61,4421.7,3581.2200000000003
0.0078125,4484.9400000000005,4698.12,4117.74,4198.32,4406.4,4710.36,4641.51,3801.03,4435.9800000000005,4532.37,3937.2000000000003,3983.61,4418.64,3576.63
0.015625,4486.9800000000005,4699.65,4123.86,4196.28,4406.91,4711.89,4644.06,3800.01,4433.43,4530.33,3934.14,3980.55,4415.58,3573.06
0.0234375,4491.57,4698.12,4128.96,4193.22,4407.42,4708.32,4647.63,3803.58,4435.47,4526.76,3934.14,3982.08,4419.15,3574.08
0.03125,4490.04,4697.61,4130.49,4203.93,4406.91,4708.32,4648.65,3804.6,4439.04,4528.8,3934.65,3975.96,4417.62,3569.4900000000002
0.0390625,4498.71,4700.67,4136.1,4197.81,4407.42,4709.85,4645.59,3801.54,4435.47,4531.35,3933.63,3967.29,4416.6,3568.98
0.046875,4495.65,4699.65,4131.51,4190.16,4409.46,4711.38,4647.12,3801.03,4433.9400000000005,4529.31,3935.67,3974.94,4421.7,3571.53
0.0546875,4486.9800000000005,4702.2,4122.33,4196.28,4410.4800000000005,4709.85,4647.12,3803.58,4435.47,4527.78,3934.65,3984.12,4422.72,3573.06
0.0625,4487.49,4699.14,4125.39,4193.22,4411.5,4710.87,4647.63,3804.09,4437.51,4528.29,3933.12,3981.57,4417.62,3573.57
0.0703125,4480.86,4696.08,4127.43,4193.22,4407.42,4709.34,4646.1,3799.5,4440.57,4529.82,3937.2000000000003,3981.06,4419.66,3576.63
0.078125,4489.02,4701.18,4129.47,4187.61,4407.93,4708.32,4649.16,3803.07,4436.49,4531.86,3929.55,3970.86,4419.15,3578.67
0.0859375,4489.02,4699.65,4130.49,4194.24,4410.99,4709.85,4650.18,3805.62,4433.9400000000005,4529.82,3931.59,3973.92,4418.13,3572.04
0.09375,4489.53,4700.16,4129.47,4199.85,4408.95,4710.36,4648.14,3806.64,4437.0,4528.29,3936.69,3978.0,4418.64,3571.02
0.1015625,4495.65,4705.26,4132.53,4192.71,4408.4400000000005,4710.36,4648.14,3806.64,4436.49,4530.33,3933.12,3970.86,4417.11,3571.53
0.109375,4490.04,4700.16,4134.57,4187.61,4408.95,4710.36,4644.57,3806.13,4435.9800000000005,4531.86,3935.16,3972.9,4416.09,3568.4700000000003
0.1171875,4492.59,4702.71,4129.47,4185.57,4408.4400000000005,4713.93,4646.61,3807.15,4438.02,4530.33,3931.59,3975.4500000000003,4416.6,3573.57
0.125,4486.9800000000005,4705.26,4119.78,4193.7300000000005,4408.95,4713.42,4648.65,3806.64,4438.02,4530.33,3933.63,3984.63,4418.13,3581.2200000000003
0.1328125,4478.31,4699.14,4112.13,4197.81,4409.46,4709.85,4647.63,3805.11,4438.53,4530.84,3935.67,3994.83,4417.62,3582.75
0.140625,4482.39,4700.67,4119.27,4191.6900000000005,4409.46,4711.89,4649.67,3802.05,4437.0,4529.31,3928.02,3982.08,4415.07,3580.2000000000003
0.1484375,4481.37,4700.67,4129.47,4188.12,4407.93,4709.34,4647.63,3802.05,4436.49,4529.31,3934.14,3971.88,4418.13,3579.69
0.15625,4483.92,4702.2,4126.92,4189.14,4407.93,4708.32,4647.63,3806.13,4437.51,4529.31,3936.69,3975.4500000000003,4418.64,3579.69
0.1640625,4489.02,4703.7300000000005,4124.88,4195.26,4408.4400000000005,4712.91,4647.12,3804.6,4435.47,4529.31,3933.12,3979.02,4414.05,3576.63
0.171875,4492.08,4699.65,4134.06,4197.3,4406.4,4711.89,4642.02,3802.05,4434.96,4529.82,3934.65,3975.96,4416.09,3572.04
0.1796875,4494.12,4699.14,4134.57,4194.24,4410.4800000000005,4708.83,4645.59,3803.07,4438.53,4526.76,3931.08,3971.88,4417.62,3566.43
0.1875,4492.59,4701.18,4126.92,4191.18,4412.01,4706.79,4648.14,3804.09,4439.55,4526.25,3931.59,3974.94,4417.11,3569.4900000000002
0.1953125,4485.96,4701.6900000000005,4124.88,4195.26,4407.42,4707.81,4645.59,3806.13,4435.47,4529.31,3938.2200000000003,3980.55,4418.64,3574.08
0.203125,4486.47,4699.65,4125.39,4196.28,4407.42,4710.36,4647.12,3807.15,4433.9400000000005,4529.31,3934.65,3980.55,4418.13,3571.53
0.2109375,4495.65,4697.61,4131.0,4190.67,4408.4400000000005,4708.32,4645.08,3802.56,4438.02,4529.82,3932.1,3974.94,4417.62,3571.02
0.21875,4492.59,4698.63,4134.57,4192.2,4405.38,4707.3,4641.51,3798.48,4439.55,4530.84,3933.63,3971.37,4419.66,3567.96
0.2265625,4492.08,4701.18,4130.49,4190.67,4406.91,4707.81,4643.04,3803.07,4437.51,4528.29,3931.08,3972.9,4420.17,3567.4500000000003
0.234375,4493.1,4697.61,4127.43,4195.26,4410.99,4709.85,4644.57,3806.13,4436.49,4526.76,3935.67,3979.02,4418.13,3569.4900000000002
0.2421875,4492.59,4698.12,4128.96,4201.89,4410.4800000000005,4713.42,4645.59,3805.11,4437.0,4529.31,3935.67,3977.4900000000002,4415.58,3567.96
0.25,4496.16,4700.67,4130.49,4193.7300000000005,4407.93,4709.34,4645.59,3808.17,4436.49,4530.33,3929.55,3970.86,4417.62,3570.0
0.2578125,4489.02,4696.08,4125.39,4194.75,4409.46,4705.77,4645.59,3804.09,4435.47,4530.84,3933.12,3974.94,4419.15,3571.53
0.265625,4488.0,4699.65,4119.27,4194.75,4411.5,4708.32,4648.14,3802.05,4436.49,4528.8,3932.1,3982.08,4416.6,3576.63
0.2734375,4486.9800000000005,4701.6900000000005,4116.21,4190.67,4410.4800000000005,4709.34,4646.61,3806.13,4438.53,4526.25,3933.63,3988.2000000000003,4416.6,3579.69
0.28125,4480.86,4696.59,4116.72,4196.28,4408.95,4709.34,4645.59,3806.13,4438.02,4526.25,3936.69,3988.71,4418.64,3573.57
0.2890625,4491.57,4699.14,4124.37,4190.16,4408.95,4711.38,4647.63,3802.05,4437.51,4526.76,3934.14,3978.51,4418.64,3571.53
0.296875,4496.16,4700.16,4129.9800000000005,4184.55,4409.97,4713.42,4648.65,3801.03,4440.06,4527.27,3933.63,3974.94,4416.6,3573.57
0.3046875,4492.08,4701.6900000000005,4132.53,4193.22,4408.4400000000005,4712.4,4646.61,3802.05,4439.55,4530.33,3931.59,3974.94,4415.58,3569.4900000000002
0.3125,4494.63,4703.7300000000005,4134.06,4195.26,4405.38,4710.36,4644.06,3805.62,4435.47,4530.84,3931.08,3971.88,4418.13,3567.4500000000003
0.3203125,4494.12,4697.61,4127.43,4196.28,4408.4400000000005,4710.87,4647.63,3806.64,4434.45,4528.29,3932.1,3975.4500000000003,4418.13,3568.98
0.328125,4489.02,4696.08,4125.9,4196.79,4410.99,4707.81,4648.14,3799.5,4435.9800000000005,4527.27,3935.16,3981.57,4416.6,3572.55
0.3359375,4487.49,4704.24,4127.43,4187.1,4409.46,4708.32,4644.57,3800.52,4434.96,4528.29,3934.65,3979.02,4417.62,3579.18
0.34375,4482.39,4703.7300000000005,4124.88,4191.6900000000005,4407.93,4710.87,4644.57,3805.62,4433.9400000000005,4528.8,3933.63,3977.4900000000002,4419.66,3577.14
0.3515625,4484.43,4698.12,4128.96,4199.34,4407.42,4709.85,4646.61,3803.58,4438.02,4527.27,3934.14,3976.98,4420.17,3575.1
0.359375,4494.12,4703.22,4137.63,4191.6900000000005,4408.4400000000005,4711.38,4648.65,3801.54,4440.06,4527.27,3933.63,3969.84,4417.62,3576.12
0.3671875,4490.04,4702.2,4139.67,4192.71,4409.46,4711.89,4645.59,3803.07,4439.04,4530.33,3938.2200000000003,3971.37,4417.11,3571.02
0.375,4491.06,4700.16,4132.02,4195.77,4408.95,4710.87,4646.1,3805.11,4435.47,4529.31,3935.16,3971.37,4418.64,3571.02
0.3828125,4492.59,4703.22,4128.96,4195.77,4407.42,4711.89,4647.63,3804.6,4434.45,4527.27,3935.16,3971.37,4419.15,3575.1
0.390625,4486.47,4699.65,4131.0,4197.81,4408.4400000000005,4711.38,4645.08,3805.11,4440.06,4529.31,3938.2200000000003,3980.04,4419.15,3575.1
0.3984375,4489.02,4699.65,4124.37,4195.26,4409.97,4709.34,4648.14,3805.11,4439.55,4530.84,3930.06,3976.98,4418.13,3576.12
0.40625,4481.88,4699.65,4117.2300000000005,4197.3,4408.4400000000005,4710.36,4646.1,3803.07,4434.45,4530.84,3933.12,3981.57,4419.15,3579.18
0.4140625,4478.31,4700.16,4121.31,4197.81,4407.93,4711.89,4644.57,3805.62,4434.96,4528.29,3936.1800000000003,3987.1800000000003,4419.66,3580.2000000000003
0.421875,4486.9800000000005,4703.22,4127.43,4198.32,4408.95,4711.38,4651.2,3806.13,4437.51,4525.2300000000005,3929.55,3980.55,4416.09,3577.14
0.4296875,4484.43,4698.63,4127.43,4199.34,4406.91,4710.36,4647.63,3803.58,4438.02,4527.27,3934.65,3978.0,4418.64,3577.65
0.4375,4483.41,4697.1,4128.45,4194.75,4411.5,4712.91,4644.57,3803.58,4438.53,4530.84,3934.65,3973.92,4420.17,3576.63
0.4453125,4488.51,4701.18,4135.08,4194.24,4412.01,4713.93,4647.12,3802.56,4438.53,4530.33,3932.61,3973.41,4418.64,3571.02
0.453125,4492.08,4701.18,4134.06,4196.28,4406.4,4710.36,4645.08,3804.09,4437.51,4529.82,3935.67,3978.51,4419.15,3568.98
0.4609375,4491.57,4699.65,4127.9400000000005,4201.89,4408.4400000000005,4710.36,4645.08,3807.66,4438.53,4530.33,3932.61,3978.0,4418.64,3568.4700000000003
0.46875,4489.02,4701.6900000000005,4131.51,4202.91,4409.97,4712.4,4645.08,3806.13,4438.02,4530.33,3932.1,3975.96,4418.13,3570.51
0.4765625,4484.9400000000005,4700.67,4130.49,4193.22,4407.93,4709.85,4644.06,3804.6,4435.9800000000005,4529.82,3933.63,3978.0,4417.62,3572.55
0.484375,4487.49,4699.14,4123.86,4186.59,4409.97,4707.81,4646.1,3806.64,4435.47,4529.31,3930.57,3976.98,4417.62,3572.55
0.4921875,4490.55,4701.18,4128.45,4191.6900000000005,4409.46,4709.34,4646.1,3805.62,4436.49,4530.33,3934.14,3972.39,4420.17,3572.55
0.5,4488.51,4701.18,4132.02,4195.77,4408.95,4711.89,4645.59,3806.13,4435.9800000000005,4531.35,3934.65,3972.39,4417.62,3567.4500000000003
0.5078125,4494.63,4698.12,4129.47,4187.1,4411.5,4711.38,4646.61,3804.09,4435.9800000000005,4530.84,3930.57,3974.4300000000003,4415.58,3571.02
0.515625,4489.53,4694.04,4127.9400000000005,4190.16,4410.4800000000005,4709.34,4644.57,3800.01,4438.02,4528.8,3935.67,3975.96,4419.15,3573.57
0.5234375,4485.45,4698.63,4129.47,4196.79,4406.91,4709.34,4645.08,3802.05,4435.9800000000005,4526.25,3934.14,3975.96,4419.15,3570.51
0.53125,4493.1,4701.18,4128.96,4193.7300000000005,4406.91,4708.32,4645.08,3806.64,4433.9400000000005,4528.8,3931.08,3982.59,4418.13,3574.59
0.5390625,4487.49,4695.57,4122.33,4199.85,4409.46,4708.32,4643.04,3804.6,4435.47,4530.84,3936.69,3985.14,4418.64,3575.1
0.546875,4485.96,4699.14,4123.86,4197.81,4409.97,4709.34,4643.55,3800.01,4436.49,4527.78,3934.65,3976.98,4418.13,3575.1
0.5546875,4486.47,4699.14,4126.92,4193.22,4408.4400000000005,4710.87,4645.08,3800.52,4437.0,4526.25,3932.1,3981.57,4418.13,3576.12
0.5625,4483.41,4697.61,4121.31,4199.85,4410.4800000000005,4713.42,4647.63,3806.13,4434.96,4529.82,3934.14,3984.63,4417.62,3574.59
0.5703125,4491.57,4701.18,4123.35,4196.79,4409.46,4711.89,4646.1,3808.6800000000003,4435.47,4531.86,3934.65,3974.4300000000003,4417.62,3573.57
0.578125,4491.06,4700.16,4131.51,4191.6900000000005,4407.93,4713.42,4644.06,3802.05,4438.53,4529.31,3931.08,3970.86,4418.13,3570.51
0.5859375,4486.47,4699.14,4136.1,4192.71,4409.97,4715.97,4646.61,3797.46,4437.51,4527.27,3931.59,3973.41,4417.11,3567.96
0.59375,4492.59,4699.65,4132.53,4190.16,4410.4800000000005,4711.89,4646.1,3803.58,4435.9800000000005,4528.29,3933.63,3971.88,4417.11,3570.0
0.6015625,4491.06,4699.14,4126.41,4196.28,4408.95,4710.36,4646.1,3809.7000000000003,4438.02,4529.82,3930.57,3974.4300000000003,4417.11,3571.53
0.609375,4484.9400000000005,4698.63,4126.92,4201.38,4407.93,4712.4,4649.67,3805.62,4438.53,4530.84,3931.59,3979.02,4418.13,3573.06
0.6171875,4487.49,4701.18,4126.41,4189.65,4409.46,4712.4,4651.2,3800.52,4436.49,4530.33,3933.12,3976.98,4417.11,3574.59
0.625,4484.9400000000005,4700.67,4126.41,4189.14,4410.99,4713.42,4647.63,3800.52,4435.47,4528.29,3933.12,3978.0,4417.11,3573.06
0.6328125,4484.9400000000005,4699.14,4127.43,4191.6900000000005,4408.95,4713.42,4647.63,3804.6,4436.49,4527.78,3933.12,3977.4900000000002,4418.13,3573.57
0.640625,4494.12,4701.18,4129.47,4190.67,4407.42,4712.4,4650.18,3804.6,4437.51,4528.29,3933.63,3971.88,4416.09,3573.06
0.6484375,4492.08,4699.14,4133.55,4195.77,4407.93,4713.42,4646.61,3801.03,4437.0,4527.27,3937.71,3973.92,4415.58,3567.4500000000003
0.65625,4493.61,4700.67,4136.1,4191.18,4407.42,4713.93,4647.63,3803.58,4437.0,4527.27,3934.65,3971.37,4416.6,3571.02
0.6640625,4493.1,4703.22,4131.0,4191.6900000000005,4405.89,4710.36,4652.22,3806.13,4437.0,4530.33,3932.1,3973.92,4417.11,3574.08
0.671875,4486.47,4701.18,4125.39,4196.28,4407.42,4709.85,4647.63,3807.15,4437.0,4529.31,3931.59,3982.08,4417.62,3573.57
0.6796875,4486.47,4702.71,4123.35,4195.26,4407.93,4712.4,4644.06,3805.62,4435.9800000000005,4524.72,3928.53,3979.53,4417.11,3580.71
0.6875,4479.33,4698.12,4121.31,4196.79,4405.38,4710.36,4643.55,3802.05,4437.51,4526.25,3935.16,3982.08,4419.15,3581.73
0.6953125,4481.88,4696.59,4123.86,4193.22,4407.42,4707.81,4645.59,3802.56,4439.55,4529.31,3934.14,3980.55,4419.15,3576.63
0.703125,4490.55,4701.6900000000005,4128.45,4194.24,4410.99,4707.81,4648.65,3803.58,4437.51,4528.29,3929.55,3975.96,4417.11,3574.59
0.7109375,4484.9400000000005,4701.6900000000005,4127.43,4197.3,4407.93,4706.28,4645.59,3806.13,4434.96,4529.31,3933.63,3976.98,4418.13,3576.12
0.71875,4485.45,4700.16,4127.43,4196.28,4405.89,4707.81,4644.06,3808.17,4434.45,4531.86,3932.61,3972.9,4417.62,3575.61
0.7265625,4493.1,4702.71,4135.59,4194.75,4409.46,4711.38,4647.63,3802.56,4435.9800000000005,4529.31,3931.08,3968.82,4414.56,3570.51
0.734375,4494.12,4702.71,4136.1,4186.59,4410.99,4713.42,4647.63,3799.5,4437.0,4525.74,3932.1,3972.9,4416.09,3567.96
0.7421875,4491.06,4701.18,4128.45,4189.65,4407.42,4714.95,4646.1,3802.05,4433.9400000000005,4527.78,3930.06,3975.96,4417.62,3569.4900000000002
0.75,4489.53,4700.67,4129.47,4201.38,4404.87,4710.87,4645.59,3803.07,4433.9400000000005,4530.33,3931.59,3974.4300000000003,4417.11,3573.57
0.7578125,4488.0,4700.67,4128.96,4201.38,4408.4400000000005,4707.3,4647.12,3802.05,4438.53,4529.82,3932.1,3976.4700000000003,4419.15,3571.53
0.765625,4491.06,4701.6900000000005,4128.96,4191.6900000000005,4410.4800000000005,4708.32,4647.63,3802.05,4435.9800000000005,4529.31,3929.04,3975.4500000000003,4419.15,3569.4900000000002
0.7734375,4490.55,4702.2,4131.0,4193.7300000000005,4407.93,4708.32,4644.57,3804.09,4432.41,4530.33,3934.14,3972.39,4417.62,3571.53
0.78125,4487.49,4701.18,4127.43,4201.89,4407.93,4708.32,4644.06,3806.64,4434.96,4527.27,3935.16,3976.4700000000003,4419.15,3572.04
0.7890625,4495.65,4700.16,4126.41,4196.79,4408.4400000000005,4708.83,4645.59,3805.62,4439.04,4526.25,3930.57,3979.02,4421.7,3573.06
0.796875,4494.12,4696.08,4128.45,4194.75,4406.91,4709.34,4645.08,3800.52,4440.57,4527.27,3934.14,3977.4900000000002,4419.15,3571.53
0.8046875,4490.04,4700.16,4128.96,4193.22,4409.97,4710.36,4644.57,3801.54,4438.53,4526.76,3933.12,3976.98,4416.6,3572.04
0.8125,4491.06,4702.71,4123.86,4191.6900000000005,4413.03,4709.85,4644.57,3809.7000000000003,4434.45,4529.31,3931.08,3984.63,4418.13,3578.67
0.8203125,4485.45,4700.16,4118.76,4201.89,4408.95,4708.83,4647.12,3808.17,4434.96,4531.86,3933.12,3989.73,4418.13,3578.67
0.828125,4488.51,4702.71,4123.86,4194.24,4404.87,4707.81,4645.59,3802.56,4439.55,4528.8,3931.59,3984.12,4419.15,3577.14
0.8359375,4490.04,4699.14,4126.92,4185.57,4407.93,4708.83,4642.53,3803.07,4440.06,4528.29,3932.61,3981.06,4418.64,3572.55
0.84375,4490.04,4697.61,4124.37,4192.71,4408.95,4710.36,4643.55,3804.09,4436.49,4530.84,3932.61,3981.57,4415.58,3571.02
0.8515625,4493.61,4705.26,4125.39,4191.6900000000005,4405.89,4708.32,4646.1,3803.58,4435.47,4528.29,3933.12,3980.04,4419.15,3575.1
0.859375,4489.53,4702.2,4128.45,4190.16,4408.4400000000005,4708.32,4646.61,3805.62,4435.9800000000005,4527.78,3935.16,3978.51,4421.1900000000005,3572.04
0.8671875,4490.55,4694.04,4131.0,4194.24,4409.46,4708.83,4644.06,3803.07,4435.9800000000005,4531.35,3934.14,3974.94,4419.15,3571.53
0.875,4496.16,4697.1,4132.53,4189.65,4407.93,4708.83,4645.08,3797.9700000000003,4435.9800000000005,4530.84,3932.61,3972.39,4418.64,3575.1
0.8828125,4489.02,4701.18,4133.55,4188.63,4410.4800000000005,4710.87,4649.16,3801.03,4435.47,4528.8,3931.59,3975.96,4417.11,3572.04
0.890625,4484.43,4699.65,4133.04,4196.79,4408.95,4709.85,4646.61,3806.64,4437.51,4528.29,3932.61,3980.04,4419.15,3574.08
0.8984375,4490.55,4703.7300000000005,4128.96,4197.81,4408.95,4708.83,4646.1,3803.58,4437.0,4528.8,3931.08,3978.0,4420.68,3575.1
0.90625,4490.04,4701.6900000000005,4126.92,4192.71,4410.99,4710.36,4646.61,3800.01,4434.96,4529.82,3934.14,3978.0,4418.13,3571.53
0.9140625,4489.02,4697.61,4130.49,4187.61,4410.4800000000005,4711.38,4646.61,3800.01,4437.51,4528.8,3934.65,3974.94,4416.09,3572.55
0.921875,4490.55,4703.22,4130.49,4190.67,4408.4400000000005,4710.36,4647.12,3798.9900000000002,4436.49,4528.8,3930.06,3972.9,4419.15,3573.57
0.9296875,4488.51,4702.71,4126.92,4198.83,4408.95,4709.85,4645.08,3803.07,4435.47,4531.86,3934.65,3980.04,4421.1900000000005,3575.1
0.9375,4491.57,4700.16,4128.45,4201.89,4411.5,4712.91,4647.63,3806.64,4436.49,4531.86,3933.12,3978.0,4418.13,3575.61
0.9453125,4490.04,4698.12,4128.96,4201.38,4412.01,4710.87,4648.65,3803.07,4435.9800000000005,4528.8,3932.61,3974.4300000000003,4419.15,3572.55
0.953125,4488.0,4698.63,4126.92,4195.77,4410.99,4709.34,4645.59,3802.56,4434.96,4529.82,3934.14,3979.02,4419.66,3573.57
0.9609375,4485.96,4702.71,4124.88,4195.26,4412.01,4713.42,4645.59,3803.58,4436.49,4530.84,3931.08,3981.57,4414.05,3576.12
0.96875,4481.37,4698.63,4122.84,4199.34,4411.5,4711.89,4644.57,3803.07,4436.49,4529.31,3934.14,3984.12,4415.58,3575.1
0.9765625,4489.02,4697.61,4122.84,4198.32,4407.93,4709.34,4646.61,3803.07,4436.49,4528.8,3933.63,3979.53,4418.64,3575.1
0.984375,4490.04,4701.18,4127.43,4197.81,4405.89,4710.87,4646.61,3802.05,4438.53,4527.78,3932.61,3975.4500000000003,4415.58,3575.61
0.9921875,4482.9,4699.14,4127.43,4194.75,4406.91,4710.87,4644.06,3802.56,4438.02,4527.78,3934.65,3980.04,4417.62,3572.55
1.0,4486.47,4699.14,4123.86,4198.32,4410.4800000000005,4712.4,4648.65,3805.62,4434.45,4528.8,3933.12,3982.08,4419.66,3569.4900000000002
1.0078125,4493.1,4699.65,4128.45,4199.85,4410.4800000000005,4711.89,4647.12,3805.11,4435.9800000000005,4528.8,3936.1800000000003,3976.98,4417.11,3571.53
1.015625,4491.57,4699.65,4129.9800000000005,4192.2,4406.91,4711.38,4643.55,3803.07,4437.0,4528.8,3934.14,3972.39,4416.09,3569.4900000000002
1.0234375,4488.0,4703.22,4126.41,4193.7300000000005,4409.46,4712.91,4646.1,3803.58,4434.96,4529.31,3927.0,3973.92,4416.6,3565.92
1.03125,4493.1,4702.2,4130.49,4195.26,4412.52,4710.36,4641.51,3805.11,4436.49,4530.84,3935.16,3979.02,4420.17,3571.53
1.0390625,4493.61,4698.63,4128.45,4192.2,4412.52,4709.85,4642.53,3805.11,4437.51,4530.84,3937.71,3978.51,4418.13,3571.53
1.046875,4489.53,4698.63,4127.43,4189.65,4409.46,4710.36,4646.61,3802.56,4436.49,4529.31,3929.55,3976.4700000000003,4415.58,3567.4500000000003
1.0546875,4488.51,4699.14,4128.45,4191.18,4406.91,4709.85,4642.02,3800.52,4436.49,4526.25,3933.12,3978.51,4420.68,3571.02
1.0625,4493.1,4699.65,4121.31,4194.75,4411.5,4709.34,4646.61,3807.15,4435.9800000000005,4528.8,3932.61,3979.02,4413.03,3573.06
1.0703125,4487.49,4699.14,4126.41,4193.7300000000005,4411.5,4709.34,4645.08,3802.05,4436.49,4531.35,3935.67,3977.4900000000002,4415.58,3573.57
1.078125,4490.55,4700.67,4125.9,4190.16,4408.95,4710.87,4644.57,3797.9700000000003,4437.51,4528.29,3932.61,3975.96,4419.15,3573.57
1.0859375,4492.59,4698.12,4124.88,4193.22,4407.42,4708.83,4643.04,3801.03,4436.49,4525.74,3933.12,3977.4900000000002,4417.11,3575.61
1.09375,4488.51,4699.65,4124.88,4202.91,4408.95,4710.36,4645.08,3804.6,4434.96,4529.31,3934.65,3976.4700000000003,4415.58,3572.55
1.1015625,4491.57,4704.24,4125.39,4196.28,4407.93,4710.36,4646.1,3807.15,4434.96,4530.33,3934.14,3972.9,4420.17,3571.02
1.109375,4491.06,4699.65,4124.88,4193.22,4408.95,4709.34,4644.06,3804.6,4437.51,4528.8,3932.61,3975.96,4420.68,3575.1
1.1171875,4488.51,4701.18,4128.45,4198.32,4412.01,4710.87,4644.06,3800.01,4437.51,4530.84,3932.1,3980.04,4416.09,3575.1
1.125,4490.04,4705.77,4132.02,4194.75,4408.4400000000005,4711.38,4646.61,3803.58,4437.0,4531.35,3934.14,3978.51,4417.62,3571.53
1.1328125,4488.0,4699.65,4128.96,4197.81,4408.4400000000005,4711.89,4645.59,3806.64,4438.02,4529.31,3933.63,3976.4700000000003,4419.15,3569.4900000000002
1.140625,4489.53,4695.06,4131.0,4195.26,4411.5,4708.32,4639.9800000000005,3802.56,4438.02,4529.31,3937.71,3978.51,4421.7,3576.63
1.1484375,4492.08,4698.63,4129.9800000000005,4191.18,4408.95,4710.36,4644.57,3802.05,4435.9800000000005,4528.29,3934.65,3977.4900000000002,4419.15,3576.63
1.15625,4489.02,4699.65,4129.47,4201.89,4408.95,4714.95,4649.67,3802.56,4433.9400000000005,4527.27,3930.57,3976.98,4417.62,3568.98
1.1640625,4492.08,4697.1,4134.06,4197.3,4412.01,4710.36,4644.06,3801.54,4435.9800000000005,4529.31,3935.16,3976.4700000000003,4421.7,3573.57
1.171875,4493.1,4702.2,4129.9800000000005,4195.26,4412.01,4710.87,4647.63,3803.07,4437.0,4529.31,3930.57,3971.88,4417.11,3571.02
1.1796875,4489.02,4702.71,4129.47,4203.93,4406.4,4712.91,4647.63,3804.09,4438.53,4528.29,3933.12,3979.02,4415.58,3568.4700000000003
1.1875,4491.57,4699.65,4130.49,4192.71,4407.42,4709.85,4645.08,3805.62,4441.08,4526.76,3935.16,3981.06,4418.64,3575.61
1.1953125,4489.53,4701.18,4126.92,4190.67,4412.01,4710.87,4650.6900000000005,3803.58,4435.47,4525.74,3929.55,3974.4300000000003,4415.58,3572.55
1.203125,4486.9800000000005,4698.63,4128.45,4195.77,4408.95,4711.89,4647.63,3801.54,4431.9,4527.78,3933.63,3975.96,4417.62,3571.02
1.2109375,4492.08,4697.61,4127.43,4192.2,4408.4400000000005,4711.89,4645.59,3806.13,4435.47,4529.31,3933.12,3976.4700000000003,4418.64,3573.06
1.21875,4490.55,4697.1,4126.41,4198.32,4409.46,4712.4,4645.59,3805.62,4438.02,4528.29,3933.63,3979.02,4416.09,3570.51
1.2265625,4491.57,4698.63,4127.9400000000005,4197.81,4407.93,4711.89,4643.55,3803.58,4437.51,4529.31,3934.65,3978.0,4419.66,3573.06
1.234375,4493.61,4701.18,4126.41,4190.16,4407.93,4712.91,4647.12,3805.11,4437.51,4531.86,3933.63,3977.4900000000002,4421.1900000000005,3577.14
1.2421875,4485.45,4698.12,4123.86,4194.24,4406.91,4710.36,4647.12,3807.66,4438.02,4532.88,3937.71,3984.12,4419.15,3576.63
1.25,4484.9400000000005,4701.18,4120.8,4198.32,4409.97,4707.3,4647.63,3808.17,4437.51,4529.82,3934.14,3983.1,4417.62,3574.59
1.2578125,4488.51,4700.67,4122.33,4194.24,4409.97,4709.34,4647.12,3804.6,4440.57,4529.31,3932.61,3979.02,4419.15,3573.57
1.265625,4488.0,4696.59,4127.43,4191.6900000000005,4405.38,4711.38,4644.57,3802.56,4441.59,4529.82,3934.65,3976.4700000000003,4419.66,3574.08
1.2734375,4487.49,4701.6900000000005,4127.9400000000005,4193.7300000000005,4407.42,4709.85,4645.08,3803.07,4435.47,4527.78,3928.02,3973.92,4415.58,3572.55
1.28125,4490.55,4703.7300000000005,4128.96,4191.18,4409.46,4707.3,4643.04,3806.64,4434.96,4528.8,3928.02,3975.96,4415.58,3570.0
1.2890625,4491.57,4697.61,4132.53,4194.75,4404.87,4707.3,4644.06,3808.6800000000003,4438.02,4529.31,3934.14,3974.94,4419.66,3566.94
1.296875,4491.06,4696.59,4131.51,4196.28,4405.38,4710.87,4648.65,3805.11,4438.02,4527.27,3934.65,3969.84,4418.13,3569.4900000000002
1.3046875,4494.12,4698.63,4125.9,4188.63,4411.5,4710.36,4645.59,3804.6,4437.51,4527.27,3934.14,3973.92,4417.11,3573.57
1.3125,4492.59,4700.16,4123.86,4192.2,4412.01,4711.89,4641.51,3806.64,4435.47,4528.8,3932.61,3980.55,4417.62,3569.4900000000002
1.3203125,4489.53,4702.71,4126.92,4197.3,4406.91,4709.34,4644.57,3806.64,4433.9400000000005,4528.29,3930.06,3981.06,4418.64,3568.4700000000003
1.328125,4484.43,4699.14,4123.35,4194.75,4407.42,4706.79,4647.63,3805.11,4436.49,4527.27,3932.1,3980.55,4419.15,3572.55
1.3359375,4484.9400000000005,4699.14,4122.33,4192.71,4411.5,4712.4,4647.63,3800.01,4435.47,4526.76,3932.1,3978.51,4416.6,3573.06
1.34375,4490.55,4703.7300000000005,4130.49,4191.18,4408.95,4710.36,4644.06,3798.48,4433.9400000000005,4526.76,3931.59,3976.98,4418.13,3573.06
1.3515625,4487.49,4700.67,4128.96,4195.26,4408.4400000000005,4707.3,4644.06,3805.11,4435.9800000000005,4528.8,3933.12,3977.4900000000002,4420.17,3572.04
1.359375,4490.04,4697.1,4127.43,4201.89,4409.97,4713.93,4647.12,3806.64,4435.9800000000005,4530.33,3931.59,3976.4700000000003,4418.13,3572.55
1.3671875,4494.63,4697.61,4130.49,4203.42,4407.42,4714.4400000000005,4644.57,3800.01,4435.9800000000005,4530.33,3934.14,3974.94,4417.62,3574.59
1.375,4492.08,4699.65,4125.9,4198.32,4405.89,4710.36,4644.57,3802.56,4438.53,4529.82,3934.14,3975.96,4417.11,3571.53
1.3828125,4490.55,4702.2,4124.88,4192.71,4406.91,4710.87,4647.12,3808.17,4440.06,4529.31,3934.14,3980.04,4418.13,3571.02
1.390625,4485.96,4701.18,4127.43,4196.79,4407.93,4711.89,4646.1,3805.62,4438.02,4529.31,3934.14,3980.55,4418.64,3574.59
1.3984375,4482.39,4698.63,4124.37,4198.83,4407.93,4709.85,4647.12,3806.13,4438.02,4528.8,3930.06,3979.53,4416.6,3573.06
1.40625,4490.55,4696.59,4125.39,4191.18,4407.93,4710.36,4646.1,3806.13,4441.08,4529.82,3932.1,3978.51,4414.56,3573.06
1.4140625,4492.08,4697.1,4126.41,4192.2,4408.95,4713.42,4645.08,3800.52,4439.04,4529.31,3932.61,3975.96,4413.03,3571.53
1.421875,4489.02,4699.14,4127.9400000000005,4192.2,4408.95,4711.38,4645.59,3804.09,4433.9400000000005,4527.27,3933.12,3977.4900000000002,4416.09,3571.53
1.4296875,4492.08,4699.14,4130.49,4192.71,4409.46,4710.36,4648.14,3810.21,4434.96,4527.27,3933.63,3980.04,4419.66,3572.55
1.4375,4491.57,4700.16,4128.96,4200.87,4410.99,4714.95,4649.67,3805.11,4439.04,4528.29,3933.12,3974.94,4417.62,3570.51
1.4453125,4492.08,4701.18,4127.43,4194.24,4408.95,4713.42,4645.08,3800.52,4437.51,4528.29,3933.12,3972.9,4416.6,3572.55
1.453125,4490.04,4700.16,4125.9,4188.63,4407.42,4711.89,4648.65,3805.11,4436.49,4528.29,3931.59,3975.96,4418.64,3572.55
1.4609375,4485.45,4699.14,4126.41,4196.28,4408.4400000000005,4711.38,4651.2,3806.13,4436.49,4529.31,3933.63,3979.53,4420.17,3572.04
1.46875,4490.55,4703.7300000000005,4126.41,4196.28,4406.91,4707.3,4646.1,3805.62,4434.96,4527.78,3932.61,3980.55,4420.17,3575.61
1.4765625,4488.51,4701.18,4123.86,4194.24,4407.93,4711.89,4647.63,3804.6,4435.9800000000005,4527.78,3933.12,3980.04,4416.6,3570.51
1.484375,4486.9800000000005,4694.55,4127.43,4191.18,4408.4400000000005,4712.91,4647.63,3800.01,4438.53,4529.31,3936.1800000000003,3975.96,4417.11,3570.51
1.4921875,4491.57,4699.14,4129.9800000000005,4187.61,4409.46,4710.87,4648.14,3801.03,4438.02,4528.29,3932.1,3969.33,4417.62,3573.57
1.5,4488.51,4701.6900000000005,4131.0,4193.7300000000005,4412.52,4709.34,4646.61,3804.09,4437.0,4526.76,3935.16,3973.92,4415.58,3571.02
1.5078125,4492.08,4699.65,4131.0,4195.77,4409.97,4707.3,4642.53,3805.11,4436.49,4526.76,3935.67,3979.02,4418.64,3573.06
1.515625,4490.04,4699.14,4123.86,4195.26,4407.93,4712.91,4648.65,3804.6,4432.41,4528.29,3930.06,3976.98,4420.17,3573.57
1.5234375,4484.9400000000005,4700.16,4126.41,4194.75,4407.42,4710.36,4644.57,3804.09,4430.88,4528.8,3932.61,3980.04,4418.13,3576.12
1.53125,4486.9800000000005,4703.22,4130.49,4187.1,4408.4400000000005,4707.3,4641.0,3803.58,4434.45,4526.76,3932.1,3981.06,4417.62,3578.67
1.5390625,4482.9,4702.71,4126.92,4190.67,4409.97,4709.34,4647.12,3805.11,4438.02,4528.29,3931.59,3979.02,4421.1900000000005,3574.59
1.546875,4486.9800000000005,4700.16,4128.45,4200.36,4409.46,4706.79,4644.57,3805.62,4436.49,4529.82,3936.1800000000003,3976.98,4419.66,3574.59
1.5546875,4493.1,4701.18,4132.02,4197.3,4410.4800000000005,4711.38,4647.12,3802.56,4433.9400000000005,4526.76,3932.61,3970.86,4414.05,3571.02
1.5625,4492.08,4700.16,4135.08,4188.12,4406.91,4708.83,4644.06,3800.52,4435.9800000000005,4526.76,3934.14,3971.88,4419.15,3570.51
1.5703125,4489.02,4701.18,4136.1,4192.71,4407.42,4706.28,4642.02,3800.52,4434.45,4529.31,3938.73,3974.94,4421.7,3571.53
1.578125,4488.0,4701.18,4129.47,4198.83,4412.01,4713.42,4650.18,3802.56,4432.41,4529.82,3934.65,3971.37,4416.09,3569.4900000000002
1.5859375,4491.57,4695.57,4125.39,4198.32,4407.93,4708.32,4645.08,3804.09,4437.0,4529.82,3935.67,3976.98,4418.13,3574.59
1.59375,4489.02,4694.55,4127.43,4200.87,4409.46,4708.32,4644.06,3800.01,4438.53,4530.84,3934.65,3975.4500000000003,4416.6,3571.02
1.6015625,4489.02,4698.63,4127.9400000000005,4196.28,4408.4400000000005,4711.89,4644.57,3801.54,4438.53,4530.84,3931.59,3970.86,4416.6,3572.04
1.609375,4488.0,4699.65,4120.29,4199.34,4405.38,4708.83,4643.04,3806.64,4437.51,4529.82,3932.61,3981.57,4419.66,3578.16
1.6171875,4483.92,4700.67,4119.27,4202.91,4409.46,4713.42,4651.71,3805.11,4433.9400000000005,4528.29,3929.04,3981.57,4415.07,3572.04
1.625,4488.51,4698.12,4129.47,4192.2,4407.93,4711.89,4647.12,3804.6,4437.51,4529.82,3932.61,3975.96,4416.6,3571.02
1.6328125,4490.04,4696.59,4128.45,4188.12,4406.91,4710.87,4644.57,3804.09,4441.08,4530.84,3933.12,3973.41,4417.62,3571.02
1.640625,4490.04,4698.63,4125.39,4188.12,4409.97,4711.38,4649.67,3803.07,4437.0,4528.29,3929.55,3972.9,4417.11,3570.51
1.6484375,4489.02,4698.12,4126.41,4193.7300000000005,4408.4400000000005,4708.83,4648.14,3803.58,4434.96,4528.8,3934.14,3977.4900000000002,4421.7,3571.53
1.65625,4484.43,4697.1,4120.8,4199.85,4408.4400000000005,4712.4,4649.67,3805.62,4437.0,4531.86,3931.59,3979.53,4419.15,3568.98
1.6640625,4488.51,4696.08,4121.82,4196.28,4408.4400000000005,4710.87,4645.59,3810.7200000000003,4437.51,4532.88,3931.59,3983.61,4416.6,3573.57
1.671875,4487.49,4699.14,4125.39,4191.6900000000005,4410.4800000000005,4709.85,4646.61,3807.15,4434.96,4530.84,3934.14,3981.57,4418.13,3575.1
1.6796875,4481.88,4703.22,4125.39,4188.63,4410.99,4709.85,4649.16,3802.56,4433.43,4529.31,3930.06,3976.4700000000003,4418.64,3572.55
1.6875,4488.0,4701.18,4130.49,4191.18,4406.91,4706.28,4643.04,3804.6,4433.43,4529.31,3932.61,3979.53,4418.64,3574.59
1.6953125,4493.1,4700.16,4135.59,4195.77,4408.95,4709.34,4644.57,3801.03,4434.45,4527.27,3936.1800000000003,3977.4900000000002,4416.6,3571.53
1.703125,4493.61,4698.63,4137.12,4192.71,4409.97,4710.36,4647.12,3799.5,4437.0,4526.25,3936.69,3973.41,4416.6,3570.51
1.7109375,4489.02,4698.63,4133.04,4195.26,4409.46,4712.91,4649.16,3802.56,4437.51,4525.74,3928.53,3971.37,4416.6,3570.51
1.71875,4485.96,4701.18,4128.96,4199.34,4408.95,4712.91,4648.65,3802.05,4433.9400000000005,4526.25,3927.51,3973.92,4419.66,3571.02
1.7265625,4492.59,4699.65,4129.9800000000005,4197.3,4407.93,4709.34,4646.1,3805.62,4435.9800000000005,4528.29,3936.1800000000003,3978.51,4419.15,3576.12
1.734375,4491.06,4696.59,4126.92,4197.3,4410.4800000000005,4711.38,4650.18,3806.13,4439.04,4528.8,3934.65,3975.4500000000003,4413.03,3574.08
1.7421875,4485.96,4695.57,4124.88,4196.28,4410.99,4711.89,4649.16,3804.09,4437.0,4528.29,3932.1,3974.94,4415.58,3571.53
1.75,4490.04,4701.18,4125.39,4192.2,4409.97,4711.89,4646.1,3806.64,4435.47,4528.29,3930.06,3978.51,4419.66,3572.04
1.7578125,4487.49,4701.6900000000005,4126.92,4198.32,4408.4400000000005,4709.85,4648.65,3807.15,4437.0,4528.8,3931.59,3976.98,4416.09,3572.04
1.765625,4484.9400000000005,4698.63,4128.45,4201.89,4408.95,4707.3,4648.14,3804.09,4439.04,4527.78,3935.67,3973.41,4416.09,3576.12
1.7734375,4488.51,4700.67,4128.45,4194.75,4410.99,4711.38,4649.16,3800.01,4438.02,4527.78,3930.06,3970.35,4417.11,3575.1
1.78125,4487.49,4698.63,4135.08,4192.71,4408.4400000000005,4713.42,4647.63,3799.5,4439.04,4529.82,3932.1,3972.39,4416.6,3572.04
1.7890625,4487.49,4698.12,4139.16,4193.22,4406.91,4709.85,4644.06,3805.62,4440.57,4531.35,3936.69,3976.4700000000003,4416.6,3572.55
1.796875,4487.49,4700.67,4127.9400000000005,4198.32,4409.97,4711.38,4646.1,3806.64,4436.49,4530.33,3934.65,3980.04,4416.6,3572.55
1.8046875,4486.47,4699.14,4120.8,4203.42,4407.42,4714.4400000000005,4646.1,3808.6800000000003,4434.96,4526.76,3934.14,3981.06,4418.13,3575.61
1.8125,4488.0,4699.65,4123.86,4199.34,4404.87,4711.89,4644.06,3810.7200000000003,4436.49,4522.68,3934.14,3981.57,4418.13,3575.61
1.8203125,4487.49,4699.65,4126.92,4191.6900000000005,4407.42,4709.85,4641.0,3805.62,4438.02,4524.72,3935.67,3981.57,4419.15,3574.08
1.828125,4485.96,4697.1,4127.43,4190.67,4407.93,4711.89,4641.0,3803.07,4438.53,4529.82,3934.14,3976.4700000000003,4419.66,3574.59
1.8359375,4491.06,4698.63,4129.9800000000005,4195.77,4407.42,4708.32,4644.06,3805.62,4438.02,4530.33,3932.1,3978.0,4416.6,3572.04
1.84375,4497.18,4699.65,4131.51,4193.7300000000005,4407.93,4705.26,4645.59,3803.58,4438.53,4528.29,3933.12,3981.57,4415.58,3570.51
1.8515625,4493.61,4697.61,4132.53,4191.18,4409.97,4709.34,4646.61,3800.52,4440.06,4528.29,3930.57,3972.39,4416.6,3570.51
1.859375,4491.06,4699.14,4133.04,4192.71,4409.97,4708.32,4645.08,3802.05,4439.04,4530.33,3929.55,3970.86,4417.62,3571.02
1.8671875,4488.0,4700.16,4126.41,4194.24,4408.95,4708.32,4646.1,3802.05,4437.51,4531.35,3933.12,3981.06,4416.6,3571.02
1.875,4486.9800000000005,4698.12,4124.88,4194.75,4406.4,4709.85,4647.12,3800.52,4437.51,4529.82,3933.63,3982.59,4417.62,3575.61
1.8828125,4489.53,4696.59,4127.9400000000005,4190.16,4407.42,4709.85,4646.61,3804.09,4438.53,4529.31,3934.65,3976.4700000000003,4421.1900000000005,3576.63
1.890625,4484.9400000000005,4698.12,4120.29,4197.81,4413.03,4712.91,4649.16,3806.13,4437.0,4530.33,3932.1,3977.4900000000002,4415.07,3570.51
1.8984375,4489.53,4700.16,4122.33,4200.87,4409.97,4710.87,4647.12,3803.07,4434.45,4530.84,3928.02,3982.08,4413.54,3573.06
1.90625,4494.63,4697.61,4129.9800000000005,4190.16,4406.4,4709.34,4645.59,3804.09,4435.47,4529.31,3931.59,3976.4700000000003,4422.21,3575.1
1.9140625,4490.55,4696.59,4128.45,4193.7300000000005,4409.46,4713.42,4644.57,3804.6,4434.96,4528.8,3932.61,3970.86,4419.15,3568.98
1.921875,4491.57,4701.6900000000005,4125.9,4194.75,4409.97,4712.4,4641.0,3802.05,4432.92,4528.29,3931.08,3974.4300000000003,4415.58,3572.04
1.9296875,4490.55,4703.7300000000005,4124.88,4192.71,4409.97,4710.36,4645.08,3803.07,4433.9400000000005,4529.31,3932.1,3977.4900000000002,4418.13,3572.55
1.9375,4489.02,4701.18,4129.9800000000005,4196.79,4409.97,4709.34,4646.61,3802.56,4436.49,4530.84,3935.16,3978.51,4417.62,3572.55
1.9453125,4488.0,4699.14,4133.55,4194.75,4408.95,4709.34,4643.55,3798.48,4437.51,4529.82,3933.63,3978.0,4415.58,3576.12
1.953125,4488.0,4699.65,4129.47,4195.26,4407.93,4709.85,4643.55,3800.01,4437.0,4528.8,3931.59,3976.98,4418.13,3576.12
1.9609375,4491.06,4699.14,4126.41,4199.34,4405.89,4710.36,4643.55,3804.6,4435.9800000000005,4529.82,3934.65,3980.04,4420.68,3576.63
1.96875,4490.04,4698.63,4126.41,4201.38,4407.93,4712.91,4646.1,3805.62,4436.49,4530.33,3935.16,3978.51,4418.13,3572.55
1.9765625,4492.08,4700.67,4129.9800000000005,4198.32,4409.46,4711.89,4646.61,3804.6,4438.53,4528.8,3935.67,3977.4900000000002,4417.62,3572.04
1.984375,4494.12,4700.16,4131.0,4189.65,4408.4400000000005,4709.85,4646.1,3803.58,4437.0,4527.27,3934.65,3975.96,4418.13,3574.59
1.9921875,4489.02,4698.12,4131.0,4191.6900000000005,4405.89,4709.34,4646.1,3802.05,4436.49,4527.27,3930.57,3973.92,4417.11,3571.53
2.0,4489.02,4700.67,4132.53,4195.77,4405.38,4709.34,4647.12,3803.58,4438.02,4530.33,3932.1,3976.4700000000003,4418.64,3572.04
2.0078125,4492.08,4702.71,4127.9400000000005,4194.24,4409.46,4712.4,4649.67,3805.62,4438.53,4530.84,3931.08,3975.96,4416.09,3572.04
2.015625,4489.02,4699.65,4124.88,4196.79,4407.93,4711.89,4644.57,3802.05,4439.04,4528.29,3931.59,3979.02,4413.54,3572.04
2.0234375,4484.9400000000005,4698.63,4125.39,4190.16,4406.4,4711.89,4645.59,3798.48,4440.06,4529.31,3932.1,3982.08,4415.07,3572.55
2.03125,4488.0,4701.18,4123.86,4186.59,4409.97,4713.42,4648.14,3801.03,4438.53,4530.33,3930.06,3980.04,4417.11,3571.02
2.0390625,4491.06,4699.14,4126.92,4195.77,4409.46,4710.87,4641.51,3804.6,4434.45,4529.82,3934.65,3981.06,4418.64,3571.53
2.046875,4488.0,4699.14,4127.43,4197.81,4407.42,4712.4,4646.1,3805.11,4435.47,4528.8,3932.61,3976.4700000000003,4416.09,3571.02
2.0546875,4487.49,4701.6900000000005,4128.45,4195.77,4405.89,4710.87,4646.61,3805.11,4440.57,4526.76,3931.59,3976.4700000000003,4416.6,3571.53
2.0625,4489.02,4699.65,4126.41,4188.12,4410.4800000000005,4711.89,4647.63,3801.54,4430.37,4528.29,3930.06,3972.9,4416.6,3568.98
2.0703125,4490.55,4699.65,4129.9800000000005,4190.67,4407.93,4708.83,4643.04,3803.07,4434.45,4529.82,3935.67,3976.98,4416.6,3573.06
2.078125,4489.02,4697.1,4131.0,4193.7300000000005,4410.4800000000005,4710.87,4645.08,3803.07,4439.04,4529.31,3934.14,3974.94,4415.58,3571.53
2.0859375,4490.04,4698.12,4128.96,4193.22,4409.97,4713.42,4647.12,3804.6,4437.0,4529.31,3929.55,3975.4500000000003,4413.54,3573.06
2.09375,4488.51,4699.14,4125.9,4191.18,4406.4,4709.85,4643.04,3803.58,4434.45,4529.31,3932.61,3979.53,4417.62,3575.61
2.1015625,4483.92,4701.6900000000005,4122.84,4192.2,4407.42,4711.89,4646.61,3801.54,4434.96,4528.29,3931.59,3976.98,4418.64,3571.02
2.109375,4489.02,4702.71,4126.92,4196.28,4408.4400000000005,4710.36,4645.08,3804.6,4437.0,4527.78,3935.16,3980.04,4417.11,3573.06
2.1171875,4491.06,4698.12,4125.9,4195.77,4409.46,4710.36,4645.08,3805.11,4436.49,4526.76,3936.69,3975.4500000000003,4417.11,3574.08
2.125,4491.57,4698.63,4126.41,4194.24,4409.97,4710.87,4648.14,3802.05,4433.9400000000005,4526.25,3932.61,3972.39,4418.64,3570.51
2.1328125,4491.57,4702.2,4132.02,4192.71,4409.46,4709.85,4646.61,3804.09,4434.96,4529.82,3934.14,3976.4700000000003,4419.15,3570.51
2.140625,4485.96,4699.65,4127.9400000000005,4195.26,4410.4800000000005,4712.4,4647.12,3806.64,4436.49,4529.82,3934.14,3973.41,4415.07,3569.4900000000002
2.1484375,4489.02,4698.63,4126.41,4200.36,4408.95,4708.83,4642.53,3805.11,4433.9400000000005,4527.27,3934.65,3975.4500000000003,4415.58,3571.02
2.15625,4490.55,4699.65,4126.92,4195.26,4407.93,4707.81,4642.53,3802.05,4435.9800000000005,4527.78,3935.16,3979.02,4415.58,3573.06
2.1640625,4488.51,4699.14,4127.9400000000005,4194.75,4408.4400000000005,4711.38,4645.59,3798.48,4440.57,4529.31,3933.12,3977.4900000000002,4414.05,3573.06
2.171875,4492.08,4698.63,4128.96,4198.83,4408.95,4712.91,4643.04,3801.03,4437.0,4530.33,3933.12,3977.4900000000002,4417.62,3572.55
2.1796875,4489.02,4697.61,4121.82,4200.36,4408.4400000000005,4713.42,4646.61,3807.66,4433.9400000000005,4528.8,3934.14,3977.4900000000002,4418.13,3572.04
2.1875,4486.9800000000005,4700.67,4122.33,4204.4400000000005,4406.4,4711.89,4646.1,3805.62,4435.9800000000005,4528.29,3933.63,3977.4900000000002,4415.58,3575.61
2.1953125,4490.55,4702.71,4128.96,4197.3,4407.93,4713.42,4643.04,3800.52,4439.55,4528.8,3932.61,3978.51,4416.6,3574.08
2.203125,4489.53,4700.16,4128.96,4188.63,4411.5,4713.93,4645.59,3803.58,4438.02,4528.29,3933.12,3979.53,4417.62,3567.96
2.2109375,4488.0,4700.16,4128.96,4190.67,4408.4400000000005,4709.34,4645.59,3805.62,4436.49,4529.31,3934.65,3979.53,4417.62,3572.55
2.21875,4489.53,4700.67,4126.41,4192.2,4405.38,4708.83,4644.57,3803.58,4438.02,4530.84,3934.14,3978.0,4417.11,3576.12
2.2265625,4493.1,4699.14,4125.39,4193.7300000000005,4406.4,4710.36,4644.06,3803.07,4435.9800000000005,4528.8,3934.65,3979.02,4415.58,3573.06
2.234375,4493.1,4698.63,4128.96,4193.22,4408.4400000000005,4710.87,4644.57,3803.07,4435.9800000000005,4527.27,3934.14,3979.02,4417.62,3573.06
2.2421875,4487.49,4701.6900000000005,4127.9400000000005,4193.7300000000005,4408.4400000000005,4710.87,4645.08,3803.07,4436.49,4528.8,3929.55,3978.51,4419.15,3572.55
2.25,4488.51,4700.67,4126.92,4194.75,4406.4,4710.36,4644.06,3804.6,4434.45,4527.78,3933.12,3983.1,4416.6,3573.06
2.2578125,4491.57,4697.1,4126.92,4194.75,4406.4,4711.38,4646.1,3806.64,4432.92,4527.27,3938.2200000000003,3980.04,4414.56,3572.55
2.265625,4491.06,4702.2,4128.96,4198.32,4406.91,4710.36,4647.12,3804.09,4435.47,4528.8,3933.63,3972.9,4416.6,3571.53
2.2734375,4491.57,4701.6900000000005,4134.06,4193.22,4407.42,4707.3,4643.55,3800.01,4438.02,4529.82,3932.61,3973.41,4418.13,3572.55
2.28125,4490.55,4696.08,4130.49,4191.6900000000005,4409.46,4710.36,4645.59,3801.03,4435.9800000000005,4530.84,3932.61,3973.41,4416.09,3571.02
2.2890625,4490.55,4699.14,4125.9,4198.83,4409.97,4711.89,4646.1,3805.11,4435.47,4529.31,3932.1,3975.4500000000003,4417.11,3572.04
2.296875,4492.08,4703.22,4128.96,4197.81,4408.4400000000005,4709.34,4643.55,3806.64,4435.9800000000005,4526.76,3933.63,3979.02,4419.66,3574.08
2.3046875,4490.55,4700.67,4131.51,4193.7300000000005,4409.97,4708.83,4645.59,3802.05,4437.51,4527.78,3931.59,3976.4700000000003,4417.62,3572.55
2.3125,4487.49,4698.63,4132.02,4190.67,4410.4800000000005,4707.3,4644.06,3800.01,4437.51,4528.29,3934.65,3976.4700000000003,4419.66,3575.1
2.3203125,4490.04,4701.6900000000005,4129.47,4191.18,4409.46,4711.38,4643.55,3805.62,4437.0,4525.74,3936.1800000000003,3976.4700000000003,4421.1900000000005,3577.65
2.328125,4490.55,4702.71,4128.96,4200.36,4408.4400000000005,4714.4400000000005,4646.1,3805.62,4438.53,4525.2300000000005,3932.61,3979.53,4418.13,3574.08
2.3359375,4490.04,4700.16,4130.49,4200.87,4406.4,4710.36,4643.55,3802.05,4439.04,4526.76,3933.12,3983.1,4418.13,3573.06
2.34375,4490.55,4699.14,4127.9400000000005,4193.7300000000005,4407.93,4709.85,4646.61,3802.56,4435.9800000000005,4526.76,3933.12,3979.53,4419.15,3573.57
2.3515625,4488.51,4701.6900000000005,4128.45,4194.75,4408.95,4710.36,4647.12,3803.07,4434.45,4528.8,3934.14,3979.53,4420.68,3573.57
2.359375,4489.02,4704.24,4129.9800000000005,4195.26,4407.42,4708.83,4643.55,3804.6,4437.0,4530.33,3933.63,3980.04,4419.15,3574.59
2.3671875,4492.59,4700.16,4129.9800000000005,4198.83,4407.93,4707.81,4645.08,3806.64,4437.51,4529.82,3934.65,3977.4900000000002,4415.07,3574.59
2.375,4493.1,4696.08,4131.0,4201.38,4409.46,4709.34,4645.08,3805.62,4437.51,4529.31,3937.2000000000003,3977.4900000000002,4417.62,3574.59
2.3828125,4491.06,4700.67,4130.49,4195.77,4408.95,4709.85,4644.57,3801.54,4437.51,4528.8,3932.1,3978.0,4418.13,3574.08
2.390625,4489.02,4702.71,4131.51,4195.77,4406.91,4707.3,4643.55,3801.03,4435.9800000000005,4527.78,3931.59,3979.02,4417.62,3575.61
2.3984375,4489.53,4700.67,4128.45,4197.81,4407.42,4708.83,4644.06,3804.6,4435.47,4529.31,3933.12,3977.4900000000002,4421.1900000000005,3573.57
2.40625,4491.06,4699.65,4124.88,4197.81,4407.42,4712.91,4646.61,3804.6,4435.47,4530.33,3932.1,3977.4900000000002,4421.7,3569.4900000000002
2.4140625,4491.06,4696.08,4127.9400000000005,4195.26,4405.89,4712.4,4643.04,3803.07,4437.51,4528.29,3936.69,3981.57,4419.15,3574.59
2.421875,4488.0,4696.08,4127.43,4194.75,4407.42,4710.87,4641.51,3803.07,4438.53,4527.27,3935.67,3978.0,4415.58,3576.12
2.4296875,4487.49,4700.16,4123.86,4195.26,4408.4400000000005,4710.36,4643.55,3804.6,4438.53,4529.31,3932.1,3977.4900000000002,4415.58,3571.53
2.4375,4489.02,4698.63,4124.37,4192.2,4407.42,4709.85,4643.04,3808.17,4438.53,4528.8,3933.12,3983.61,4419.15,3572.55
2.4453125,4488.0,4699.14,4125.39,4192.71,4407.93,4710.87,4646.1,3806.13,4437.0,4525.2300000000005,3930.57,3981.06,4417.62,3573.06
2.453125,4487.49,4700.67,4125.9,4189.65,4406.91,4709.34,4648.65,3802.05,4435.9800000000005,4527.27,3930.06,3973.92,4416.09,3571.02
2.4609375,4488.51,4698.63,4124.88,4188.63,4408.4400000000005,4710.87,4650.18,3805.11,4438.53,4531.35,3931.08,3973.92,4418.64,3569.4900000000002
2.46875,4488.51,4700.67,4125.9,4195.77,4411.5,4712.4,4648.14,3807.15,4438.02,4528.29,3930.57,3978.51,4419.66,3571.02
2.4765625,4489.53,4703.22,4128.45,4194.24,4407.42,4710.36,4644.06,3805.62,4435.47,4527.78,3933.12,3980.55,4419.15,3574.59
2.484375,4491.06,4701.18,4128.45,4195.26,4405.38,4712.91,4645.59,3803.58,4433.9400000000005,4529.31,3932.61,3978.51,4418.13,3573.06
2.4921875,4492.08,4699.65,4131.51,4197.81,4407.93,4712.91,4646.61,3800.52,4435.47,4528.29,3932.1,3975.4500000000003,4418.13,3572.55
2.5,4486.9800000000005,4700.16,4128.45,4194.24,4410.99,4708.32,4646.61,3802.05,4437.0,4529.82,3932.61,3974.4300000000003,4419.66,3574.08
2.5078125,4484.43,4699.65,4125.39,4194.24,4411.5,4709.85,4646.61,3804.09,4434.96,4530.33,3931.59,3975.96,4419.15,3572.55
2.515625,4489.53,4696.59,4127.9400000000005,4197.3,4408.4400000000005,4710.87,4642.02,3803.58,4435.9800000000005,4527.78,3933.12,3975.4500000000003,4418.13,3571.53
2.5234375,4491.57,4699.65,4124.88,4199.34,4408.4400000000005,4708.83,4646.1,3802.56,4439.04,4529.82,3933.12,3973.41,4417.62,3571.02
2.53125,4490.04,4702.2,4123.86,4195.77,4410.4800000000005,4710.36,4651.71,3804.09,4437.0,4531.35,3932.61,3975.96,4417.62,3571.53
2.5390625,4488.51,4698.63,4126.41,4193.22,4409.46,4711.38,4648.14,3806.64,4433.9400000000005,4529.31,3934.14,3976.4700000000003,4419.66,3572.55
2.546875,4487.49,4699.14,4126.41,4194.24,4408.95,4710.36,4645.59,3803.58,4434.45,4530.84,3932.1,3976.4700000000003,4417.62,3572.55
2.5546875,4491.57,4699.65,4127.43,4193.7300000000005,4407.93,4710.36,4644.57,3799.5,4438.02,4531.35,3932.1,3980.04,4417.62,3572.55
2.5625,4493.1,4696.08,4128.96,4193.7300000000005,4408.4400000000005,4714.4400000000005,4645.59,3799.5,4438.02,4526.76,3933.12,3978.0,4418.64,3572.04
2.5703125,4490.04,4696.08,4128.45,4191.6900000000005,4410.4800000000005,4714.95,4645.59,3804.09,4437.0,4526.76,3932.61,3975.4500000000003,4418.64,3572.04
2.578125,4492.59,4698.63,4125.9,4189.65,4407.93,4711.38,4646.61,3807.66,4436.49,4528.29,3932.1,3978.0,4418.13,3573.57
2.5859375,4494.12,4699.14,4124.37,4195.77,4405.89,4712.4,4648.14,3804.6,4435.47,4528.29,3931.59,3978.51,4418.13,3572.55
2.59375,4491.06,4698.12,4129.47,4196.28,4406.91,4712.4,4644.57,3802.56,4435.9800000000005,4529.31,3930.57,3978.51,4419.66,3571.53
2.6015625,4490.04,4699.65,4131.0,4190.67,4410.99,4710.87,4646.1,3804.09,4438.02,4528.8,3929.04,3975.4500000000003,4416.6,3572.55
2.609375,4491.06,4701.6900000000005,4126.41,4193.22,4408.95,4711.38,4648.65,3804.09,4437.51,4527.78,3933.12,3973.92,4416.09,3571.53
2.6171875,4492.59,4700.67,4125.39,4196.79,4406.4,4709.85,4645.59,3805.11,4435.47,4529.31,3936.69,3976.4700000000003,4419.15,3571.02
2.625,4492.08,4700.16,4126.92,4195.77,4409.46,4710.87,4644.57,3803.58,4434.96,4531.86,3932.61,3978.0,4417.62,3570.0
2.6328125,4491.06,4699.65,4129.9800000000005,4192.2,4410.4800000000005,4712.4,4644.06,3800.01,4435.9800000000005,4529.31,3934.14,3975.4500000000003,4417.11,3571.53
2.640625,4491.57,4699.14,4129.9800000000005,4187.61,4408.4400000000005,4711.38,4646.1,3802.56,4436.49,4527.78,3936.1800000000003,3971.88,4417.11,3572.55
2.6484375,4489.53,4699.14,4126.92,4190.16,4408.95,4709.85,4645.59,3804.09,4435.47,4529.31,3934.65,3974.4300000000003,4415.58,3570.51
2.65625,4488.51,4700.67,4126.92,4195.77,4407.93,4708.83,4641.51,3801.03,4434.45,4528.8,3934.14,3976.4700000000003,4418.13,3571.53
2.6640625,4491.57,4702.2,4125.39,4198.83,4406.91,4710.36,4645.08,3804.6,4434.45,4527.78,3931.08,3974.94,4420.17,3572.04
2.671875,4492.08,4698.63,4127.43,4196.28,4408.4400000000005,4711.38,4646.1,3808.17,4435.47,4528.29,3933.63,3977.4900000000002,4417.62,3572.55
2.6796875,4490.55,4699.65,4128.96,4191.18,4409.97,4710.36,4643.55,3804.09,4434.96,4526.76,3934.14,3978.0,4418.13,3574.08
2.6875,4488.0,4704.24,4125.39,4192.2,4409.97,4709.34,4646.61,3801.54,4435.9800000000005,4526.25,3933.12,3976.98,4420.68,3574.08
2.6953125,4486.47,4701.18,4125.39,4195.26,4407.93,4708.83,4646.1,3805.11,4437.51,4530.33,3935.16,3977.4900000000002,4418.13,3573.57
2.703125,4490.55,4698.63,4131.0,4198.32,4407.93,4711.38,4644.06,3803.07,4435.9800000000005,4530.33,3931.59,3973.92,4413.03,3571.02
2.7109375,4492.59,4699.65,4133.04,4198.32,4408.95,4708.83,4644.06,3800.52,4435.47,4528.29,3930.06,3974.4300000000003,4415.58,3569.4900000000002
2.71875,4489.53,4699.14,4128.45,4194.75,4408.4400000000005,4709.34,4646.1,3805.11,4437.51,4529.82,3932.61,3976.4700000000003,4420.17,3570.0
2.7265625,4488.51,4699.65,4127.43,4199.34,4406.4,4714.95,4648.14,3806.13,4436.49,4529.82,3933.63,3973.92,4417.62,3572.04
2.734375,4491.06,4699.14,4128.45,4199.34,4404.36,4710.36,4646.61,3804.09,4435.47,4527.78,3934.14,3973.92,4417.62,3573.57
2.7421875,4491.57,4698.12,4126.92,4196.28,4407.93,4707.3,4647.63,3805.11,4437.51,4527.78,3931.08,3976.4700000000003,4417.62,3571.02
2.75,4488.51,4699.14,4129.47,4195.77,4410.4800000000005,4711.38,4647.12,3802.56,4439.04,4527.27,3931.08,3974.4300000000003,4415.07,3570.51
2.7578125,4488.0,4700.67,4128.96,4190.67,4409.46,4710.87,4645.59,3802.56,4437.0,4528.29,3935.67,3972.9,4415.58,3574.59
2.765625,4488.51,4700.16,4123.35,4192.71,4408.95,4707.3,4648.65,3807.66,4434.96,4531.35,3933.12,3978.0,4418.13,3574.59
2.7734375,4488.51,4699.14,4125.9,4197.3,4408.4400000000005,4707.3,4645.59,3808.17,4439.04,4530.33,3931.59,3981.06,4418.64,3573.06
2.78125,4489.02,4697.61,4129.47,4190.67,4407.42,4711.89,4642.53,3805.11,4440.57,4529.82,3932.1,3973.92,4415.07,3571.02
2.7890625,4489.02,4696.08,4128.96,4188.12,4407.42,4711.89,4647.12,3804.09,4437.0,4530.84,3932.61,3973.92,4414.05,3572.55
2.796875,4489.02,4696.59,4127.9400000000005,4190.16,4406.91,4708.83,4647.63,3804.6,4436.49,4528.8,3934.14,3982.08,4416.6,3575.61
2.8046875,4489.02,4700.16,4122.84,4194.75,4407.42,4710.87,4645.08,3804.09,4437.51,4526.25,3929.55,3983.61,4415.58,3570.51
2.8125,4493.1,4699.14,4123.86,4199.34,4407.42,4711.38,4644.57,3806.13,4438.53,4528.29,3931.08,3979.53,4417.11,3570.0
2.8203125,4493.1,4698.12,4128.45,4197.3,4406.91,4709.34,4646.61,3806.64,4438.02,4528.29,3933.63,3977.4900000000002,4419.66,3575.1
2.828125,4489.53,4702.2,4127.43,4189.14,4407.93,4711.38,4646.61,3803.07,4434.96,4526.25,3932.61,3978.51,4416.6,3570.0
2.8359375,4490.55,4703.22,4126.41,4185.06,4407.93,4709.85,4645.59,3805.11,4434.96,4529.82,3934.65,3980.04,4417.11,3568.98
2.84375,4489.53,4701.6900000000005,4127.9400000000005,4198.83,4408.4400000000005,4705.77,4650.18,3808.17,4438.53,4531.86,3933.12,3976.98,4417.62,3574.59
2.8515625,4488.51,4701.18,4132.02,4201.38,4405.38,4706.28,4650.18,3803.58,4439.04,4529.31,3932.61,3976.4700000000003,4417.62,3575.61
2.859375,4489.02,4697.1,4129.47,4190.67,4404.36,4708.32,4644.57,3801.03,4438.02,4527.78,3933.63,3974.94,4419.15,3571.53
2.8671875,4489.02,4698.63,4128.45,4197.81,4409.97,4709.85,4646.1,3802.56,4437.0,4528.8,3932.61,3973.41,4419.15,3571.02
2.875,4489.02,4703.7300000000005,4131.0,4202.4,4411.5,4710.87,4648.14,3804.6,4435.47,4527.27,3934.14,3976.4700000000003,4420.68,3574.08
2.8828125,4486.9800000000005,4699.65,4126.41,4200.36,4408.4400000000005,4711.89,4647.63,3804.09,4436.49,4525.2300000000005,3934.65,3974.4300000000003,4419.15,3571.02
2.890625,4488.0,4694.04,4125.9,4197.3,4406.4,4712.4,4645.08,3800.52,4438.02,4526.76,3932.1,3971.88,4417.62,3572.04
2.8984375,4490.04,4696.08,4127.9400000000005,4192.2,4407.42,4710.87,4644.57,3801.03,4438.02,4528.8,3930.57,3973.92,4418.64,3575.61
2.90625,4487.49,4702.71,4126.41,4194.24,4410.4800000000005,4709.85,4647.63,3804.09,4435.9800000000005,4528.8,3931.08,3973.92,4418.64,3572.04
2.9140625,4487.49,4702.2,4126.92,4199.85,4410.4800000000005,4706.79,4647.12,3804.6,4434.96,4530.33,3934.14,3973.92,4417.11,3572.55
2.921875,4489.02,4697.61,4125.9,4198.32,4411.5,4708.83,4648.14,3802.56,4435.9800000000005,4530.33,3933.12,3976.4700000000003,4415.07,3573.06
2.9296875,4488.0,4696.59,4127.9400000000005,4192.71,4409.97,4712.91,4646.1,3800.52,4436.49,4528.29,3931.59,3976.98,4416.09,3572.55
2.9375,4488.51,4698.63,4129.47,4191.6900000000005,4406.4,4711.89,4645.59,3800.52,4437.51,4530.33,3932.1,3973.41,4417.11,3572.55
2.9453125,4489.02,4701.18,4125.39,4199.85,4406.4,4711.38,4648.65,3803.58,4438.53,4532.37,3931.08,3976.4700000000003,4415.07,3569.4900000000002
2.953125,4491.57,4698.12,4128.45,4195.26,4404.36,4708.83,4643.55,3804.09,4439.04,4531.86,3935.16,3980.55,4418.64,3572.55
2.9609375,4491.57,4699.65,4130.49,4186.08,4406.4,4710.87,4644.06,3801.54,4438.02,4531.35,3933.12,3972.9,4419.66,3575.61
2.96875,4488.51,4704.24,4125.9,4194.24,4410.4800000000005,4715.46,4650.18,3802.56,4437.0,4529.82,3930.06,3971.88,4414.56,3571.53
2.9765625,4492.59,4699.65,4127.9400000000005,4201.38,4406.91,4711.38,4647.63,3806.13,4438.53,4529.82,3935.16,3980.04,4417.11,3571.02
2.984375,4493.61,4700.67,4126.92,4199.34,4405.38,4710.36,4648.14,3803.58,4439.04,4529.31,3934.14,3977.4900000000002,4418.64,3574.08
2.9921875,4491.57,4703.22,4124.37,4192.71,4407.93,4711.89,4647.63,3801.03,4437.51,4526.25,3932.61,3974.94,4417.62,3576.12
3.0,4493.1,4700.67,4127.43,4190.16,4407.93,4711.89,4645.08,3803.58,4437.0,4527.78,3932.61,3976.4700000000003,4417.62,3573.57
3.0078125,4493.1,4701.18,4128.96,4194.75,4405.89,4711.89,4645.08,3803.58,4437.0,4529.82,3931.08,3976.98,4417.11,3571.53
3.015625,4491.06,4701.6900000000005,4125.39,4192.2,4406.91,4709.85,4645.08,3804.6,4438.02,4528.29,3934.14,3980.55,4417.62,3573.57
3.0234375,4489.02,4700.67,4124.37,4193.7300000000005,4408.95,4710.87,4648.14,3804.6,4438.53,4527.27,3933.12,3979.53,4418.13,3571.02
3.03125,4488.0,4701.6900000000005,4128.96,4196.28,4408.4400000000005,4710.87,4646.61,3804.6,4437.0,4529.31,3933.12,3975.96,4419.66,3572.04
3.0390625,4489.53,4703.7300000000005,4126.41,4192.2,4406.91,4709.85,4643.04,3806.64,4436.49,4529.31,3933.12,3976.98,4418.64,3576.12
3.046875,4490.55,4700.67,4125.39,4197.3,4408.4400000000005,4708.83,4646.1,3806.64,4437.51,4526.76,3931.59,3979.53,4415.58,3571.53
3.0546875,4492.59,4696.59,4130.49,4198.32,4406.91,4706.79,4646.1,3804.6,4437.0,4527.27,3935.16,3975.96,4418.64,3571.02
3.0625,4489.02,4702.71,4126.92,4193.7300000000005,4408.4400000000005,4710.87,4647.63,3803.07,4433.43,4529.31,3930.57,3974.94,4418.13,3573.06
3.0703125,4490.55,4703.22,4131.0,4190.16,4409.97,4707.81,4645.59,3802.56,4433.9400000000005,4530.33,3933.12,3976.98,4417.11,3572.04
3.078125,4490.04,4702.2,4127.9400000000005,4190.16,4409.46,4708.32,4646.1,3803.07,4434.96,4530.33,3936.1800000000003,3974.94,4416.6,3572.04
3.0859375,4490.04,4699.14,4126.92,4192.71,4407.93,4709.85,4646.1,3801.54,4436.49,4529.82,3935.16,3973.41,4417.62,3574.08
3.09375,4490.55,4698.63,4130.49,4194.24,4408.95,4712.91,4645.59,3798.9900000000002,4436.49,4526.76,3929.55,3971.88,4418.64,3574.08
3.1015625,4490.04,4699.14,4130.49,4197.81,4409.46,4710.87,4646.61,3801.54,4436.49,4525.74,3930.06,3974.4300000000003,4419.15,3574.59
3.109375,4489.02,4698.12,4126.92,4199.85,4407.42,4707.3,4647.63,3806.13,4437.51,4528.29,3933.12,3980.55,4417.62,3574.59
3.1171875,4488.51,4699.65,4125.9,4198.83,4407.42,4712.91,4647.12,3806.64,4435.9800000000005,4531.35,3929.04,3981.06,4413.54,3569.4900000000002
3.125,4491.57,4699.65,4126.92,4195.26,4408.95,4712.91,4645.08,3804.6,4436.49,4530.33,3930.06,3978.51,4417.11,3570.51
3.1328125,4490.55,4699.14,4126.41,4196.28,4409.97,4709.85,4647.63,3802.56,4438.53,4529.31,3933.63,3974.4300000000003,4419.66,3572.55
3.140625,4485.96,4700.67,4127.43,4194.75,4408.4400000000005,4711.89,4647.63,3802.56,4435.9800000000005,4530.33,3931.59,3974.94,4416.6,3569.4900000000002
3.1484375,4487.49,4701.18,4126.41,4192.2,4407.42,4712.91,4645.59,3806.64,4434.45,4527.78,3932.1,3979.02,4417.62,3568.98
3.15625,4487.49,4699.65,4123.35,4199.85,4408.95,4711.89,4649.16,3806.13,4435.9800000000005,4525.2300000000005,3933.63,3977.4900000000002,4417.62,3570.51
3.1640625,4487.49,4698.12,4126.41,4196.28,4407.93,4711.38,4648.65,3803.07,4437.0,4528.29,3933.12,3975.96,4414.56,3572.55
3.171875,4485.96,4699.14,4129.9800000000005,4187.1,4407.42,4712.91,4647.63,3804.09,4438.02,4528.29,3930.06,3976.98,4415.07,3570.0
3.1796875,4484.43,4701.6900000000005,4128.45,4191.6900000000005,4408.95,4713.93,4649.16,3805.11,4436.49,4527.78,3927.51,3978.51,4416.6,3567.96
3.1875,4490.55,4699.65,4128.45,4198.32,4408.4400000000005,4711.89,4646.61,3805.62,4436.49,4528.8,3931.08,3979.02,4417.11,3572.55
3.1953125,4492.59,4696.59,4128.45,4199.85,4409.46,4711.89,4648.65,3806.64,4438.02,4527.78,3933.63,3978.51,4415.07,3571.53
3.203125,4489.02,4698.63,4128.96,4196.79,4409.97,4713.42,4649.16,3805.11,4439.04,4526.76,3932.61,3979.02,4417.11,3571.02
3.2109375,4488.0,4700.67,4127.43,4189.65,4408.95,4711.89,4646.1,3804.6,4437.51,4528.29,3930.06,3979.02,4418.13,3573.06
3.21875,4489.53,4699.65,4126.92,4191.18,4408.4400000000005,4709.85,4648.14,3806.64,4435.9800000000005,4527.78,3927.51,3980.04,4414.05,3569.4900000000002
3.2265625,4491.57,4697.61,4129.47,4194.75,4406.91,4708.32,4648.14,3805.11,4437.51,4526.25,3932.1,3979.53,4417.11,3570.51
3.234375,4490.04,4699.14,4126.41,4190.67,4406.91,4709.34,4646.1,3802.05,4438.53,4526.25,3933.12,3975.4500000000003,4419.66,3571.53
3.2421875,4490.04,4700.16,4126.41,4187.1,4408.4400000000005,4709.34,4646.61,3804.09,4437.51,4526.25,3931.08,3974.4300000000003,4416.6,3569.4900000000002
3.25,4490.04,4699.65,4128.96,4192.2,4407.42,4709.34,4648.14,3806.64,4437.0,4528.29,3933.12,3978.0,4415.58,3572.55
3.2578125,4490.04,4705.26,4126.41,4199.34,4407.93,4710.87,4647.12,3804.09,4436.49,4528.29,3933.12,3980.55,4419.66,3574.08
3.265625,4492.59,4703.7300000000005,4127.9400000000005,4195.77,4410.4800000000005,4708.83,4643.04,3805.11,4438.02,4527.27,3935.16,3982.08,4420.68,3574.08
3.2734375,4492.59,4698.12,4131.51,4191.6900000000005,4412.52,4707.3,4646.1,3806.13,4438.02,4530.33,3932.61,3976.98,4415.58,3574.08
3.28125,4490.55,4699.14,4132.02,4193.22,4410.4800000000005,4709.85,4645.59,3802.56,4436.49,4529.82,3930.06,3972.9,4414.56,3573.57
3.2890625,4488.0,4698.63,4128.45,4193.22,4407.93,4710.36,4641.0,3803.07,4436.49,4526.76,3933.63,3975.96,4419.15,3573.06
3.296875,4486.47,4701.18,4124.88,4197.81,4409.46,4712.4,4646.1,3807.15,4435.9800000000005,4526.76,3932.61,3976.98,4419.15,3569.4900000000002
3.3046875,4488.51,4703.7300000000005,4125.9,4197.3,4410.4800000000005,4710.87,4648.14,3807.15,4435.9800000000005,4528.29,3930.57,3975.96,4416.6,3569.4900000000002
3.3125,4487.49,4698.63,4125.9,4190.67,4409.46,4712.4,4648.14,3804.6,4438.02,4527.27,3930.06,3973.41,4415.07,3570.0
3.3203125,4480.86,4695.57,4125.39,4191.6900000000005,4408.95,4716.99,4650.6900000000005,3803.58,4435.9800000000005,4527.78,3929.55,3971.88,4414.05,3567.96
3.328125,4481.37,4699.65,4125.9,4193.22,4409.97,4713.42,4649.67,3805.11,4433.43,4530.33,3932.1,3975.96,4417.11,3567.96
3.3359375,4484.43,4700.16,4122.33,4197.3,4412.01,4712.91,4649.16,3806.64,4436.49,4529.31,3932.61,3978.0,4416.09,3568.98
3.34375,4484.9400000000005,4696.08,4123.86,4201.38,4409.46,4713.93,4648.65,3805.62,4440.06,4528.8,3931.59,3976.98,4415.07,3571.53
3.3515625,4483.92,4699.65,4127.9400000000005,4193.22,4406.4,4711.89,4648.14,3804.6,4435.47,4529.31,3930.57,3974.4300000000003,4418.13,3571.02
3.359375,4483.92,4704.24,4123.35,4188.12,4407.93,4712.4,4649.16,3805.11,4431.39,4527.78,3930.06,3974.4300000000003,4416.6,3568.4700000000003
3.3671875,4485.96,4700.67,4122.84,4190.67,4407.93,4711.89,4646.61,3807.15,4437.0,4527.27,3934.14,3975.96,4415.07,3571.02
3.375,4490.04,4700.67,4127.43,4190.67,4408.4400000000005,4710.36,4646.61,3806.64,4440.57,4527.78,3936.69,3973.92,4416.09,3573.57
3.3828125,4490.04,4702.2,4128.96,4192.2,4408.95,4708.32,4648.14,3802.56,4439.55,4529.31,3936.1800000000003,3975.4500000000003,4417.62,3572.04
3.390625,4489.02,4699.65,4127.9400000000005,4194.24,4408.4400000000005,4708.32,4650.18,3802.56,4439.55,4530.84,3933.12,3978.0,4417.62,3572.04
3.3984375,4489.53,4700.67,4125.9,4195.26,4409.46,4709.34,4652.22,3804.09,4438.53,4530.84,3931.08,3979.02,4415.07,3572.55
3.40625,4488.0,4703.7300000000005,4124.37,4193.22,4408.95,4709.85,4646.61,3805.11,4437.0,4531.35,3933.12,3982.08,4417.11,3574.08
3.4140625,4491.06,4701.6900000000005,4125.39,4196.28,4407.93,4711.38,4643.55,3804.6,4439.04,4531.35,3931.59,3979.02,4418.13,3574.59
3.421875,4495.65,4700.67,4133.04,4197.81,4406.91,4712.91,4647.12,3801.03,4439.55,4529.31,3932.61,3974.94,4416.6,3573.06
3.4296875,4494.63,4700.67,4134.06,4191.18,4407.93,4710.87,4646.61,3801.54,4435.9800000000005,4528.8,3935.16,3973.41,4418.13,3572.04
3.4375,4491.06,4701.18,4127.43,4196.28,4408.95,4710.36,4644.57,3802.05,4434.45,4528.8,3933.63,3972.9,4418.13,3571.53
3.4453125,4493.1,4700.16,4128.45,4201.38,4405.38,4709.85,4642.53,3802.05,4436.49,4528.29,3936.1800000000003,3977.4900000000002,4417.11,3572.55
3.453125,4494.63,4698.63,4129.9800000000005,4195.77,4405.38,4708.83,4644.57,3804.09,4437.51,4527.27,3936.69,3978.0,4418.13,3573.57
3.4609375,4489.53,4703.22,4130.49,4191.18,4407.93,4708.83,4647.63,3801.54,4437.51,4528.8,3934.14,3974.94,4420.17,3572.55
3.46875,4489.02,4705.26,4130.49,4188.12,4406.91,4707.81,4643.55,3801.54,4437.0,4531.86,3933.63,3975.96,4420.68,3575.1
3.4765625,4491.06,4700.67,4125.39,4194.75,4406.91,4709.85,4643.04,3806.64,4435.47,4530.33,3929.55,3978.51,4419.15,3574.08
3.484375,4490.04,4698.12,4125.9,4198.83,4406.91,4709.34,4645.59,3806.13,4436.49,4529.31,3932.1,3976.98,4419.15,3571.53
3.4921875,4492.59,4702.2,4129.9800000000005,4192.2,4406.91,4708.32,4646.1,3802.05,4437.51,4529.82,3936.1800000000003,3975.4500000000003,4420.17,3575.1
3.5,4492.59,4702.71,4130.49,4192.71,4411.5,4710.36,4647.12,3801.03,4436.49,4529.31,3934.65,3976.98,4418.13,3576.12
3.5078125,4490.55,4698.63,4129.47,4196.28,4411.5,4710.87,4645.59,3801.54,4436.49,4527.78,3935.16,3974.4300000000003,4417.11,3573.06
3.515625,4490.04,4699.65,4127.9400000000005,4196.28,4407.42,4712.91,4646.61,3804.6,4437.51,4528.8,3934.14,3973.41,4415.07,3572.55
3.5234375,4488.51,4701.6900000000005,4129.9800000000005,4201.38,4408.4400000000005,4711.89,4647.12,3803.58,4438.02,4529.31,3934.65,3976.4700000000003,4414.05,3573.06
3.53125,4488.51,4699.14,4130.49,4201.38,4410.99,4708.83,4648.14,3800.01,4440.06,4528.8,3934.65,3973.92,4414.56,3571.53
3.5390625,4488.0,4699.65,4129.9800000000005,4197.3,4410.4800000000005,4710.36,4649.16,3801.03,4440.57,4528.29,3933.63,3974.94,4415.58,3570.0
3.546875,4486.9800000000005,4702.71,4128.96,4196.79,4407.93,4709.85,4646.1,3806.64,4440.06,4529.31,3935.67,3983.1,4419.15,3574.08
3.5546875,4489.02,4703.7300000000005,4127.43,4198.83,4407.93,4707.3,4648.65,3807.15,4438.02,4531.86,3934.14,3979.02,4418.13,3573.57
3.5625,4490.55,4700.16,4127.9400000000005,4198.32,4406.91,4710.87,4649.67,3804.09,4435.9800000000005,4530.33,3936.1800000000003,3973.92,4416.6,3569.4900000000002
3.5703125,4489.02,4698.12,4129.47,4192.2,4406.4,4712.4,4646.1,3804.09,4440.06,4528.8,3936.69,3974.94,4418.13,3570.0
3.578125,4488.0,4701.18,4128.96,4190.16,4408.4400000000005,4709.34,4648.65,3802.05,4442.61,4529.82,3932.1,3974.4300000000003,4418.13,3571.02
3.5859375,4490.55,4699.65,4126.41,4192.2,4406.91,4710.36,4648.14,3806.13,4436.49,4529.82,3933.63,3977.4900000000002,4419.15,3573.06
3.59375,4493.1,4697.61,4123.86,4197.3,4406.91,4713.42,4644.57,3809.7000000000003,4434.96,4529.82,3932.1,3979.53,4419.15,3574.59
3.6015625,4491.06,4701.18,4129.47,4197.3,4409.46,4712.91,4644.57,3802.56,4441.08,4529.31,3930.57,3976.98,4417.62,3573.06
3.609375,4489.02,4701.6900000000005,4134.06,4185.57,4407.93,4712.91,4647.12,3800.52,4438.53,4529.31,3935.16,3973.92,4419.15,3574.08
3.6171875,4489.02,4701.18,4128.45,4186.08,4406.91,4714.4400000000005,4647.63,3805.11,4431.9,4529.82,3935.16,3972.39,4418.64,3573.06
3.625,4488.0,4703.22,4128.45,4197.3,4405.89,4708.32,4645.59,3804.09,4435.47,4530.84,3934.14,3976.98,4418.64,3572.04
3.6328125,4489.02,4703.22,4131.51,4197.3,4407.42,4706.28,4645.59,3802.05,4438.02,4530.33,3933.12,3981.57,4419.66,3573.06
3.640625,4491.06,4700.16,4129.9800000000005,4193.22,4409.46,4710.87,4645.08,3800.52,4434.45,4531.35,3931.08,3979.02,4418.13,3573.57
3.6484375,4488.0,4698.12,4129.9800000000005,4194.24,4407.93,4708.32,4642.53,3797.9700000000003,4433.9400000000005,4529.82,3933.12,3972.9,4417.11,3573.06
3.65625,4485.96,4700.67,4127.9400000000005,4197.3,4406.4,4707.3,4645.08,3801.03,4435.9800000000005,4526.25,3933.63,3974.94,4417.11,3572.55
3.6640625,4489.02,4699.14,4126.92,4197.81,4407.42,4710.87,4647.63,3805.62,4437.0,4529.82,3933.12,3980.55,4418.13,3573.06
3.671875,4492.59,4696.59,4128.45,4197.3,4407.93,4710.87,4648.14,3803.07,4435.9800000000005,4533.39,3934.14,3975.4500000000003,4417.11,3570.51
3.6796875,4493.61,4698.63,4128.45,4199.34,4407.93,4707.3,4647.63,3801.03,4434.96,4529.31,3934.65,3972.39,4415.58,3568.4700000000003
3.6875,4489.53,4700.16,4125.9,4196.79,4407.42,4707.3,4645.59,3806.13,4436.49,4526.25,3934.14,3979.02,4416.09,3572.04
3.6953125,4485.96,4701.18,4124.37,4197.81,4409.46,4712.91,4648.14,3807.15,4437.51,4528.8,3932.61,3980.04,4417.11,3572.04
3.703125,4489.02,4700.67,4127.43,4198.83,4409.97,4713.93,4647.63,3803.07,4437.51,4529.82,3931.59,3978.51,4419.15,3570.0
3.7109375,4492.08,4696.59,4128.45,4194.75,4408.95,4709.34,4646.1,3802.05,4438.53,4527.78,3932.1,3979.02,4419.66,3572.55
3.71875,4490.04,4696.59,4127.43,4193.7300000000005,4409.46,4710.87,4649.67,3801.03,4439.04,4527.78,3933.63,3978.0,4416.09,3574.08
3.7265625,4489.53,4699.14,4128.45,4191.18,4408.4400000000005,4712.4,4647.12,3802.56,4438.02,4529.82,3934.14,3976.4700000000003,4416.09,3573.57
3.734375,4489.02,4698.63,4125.39,4194.24,4408.95,4710.87,4643.55,3807.15,4435.47,4528.8,3932.1,3975.96,4416.09,3572.55
3.7421875,4487.49,4697.61,4126.41,4199.34,4410.99,4711.38,4645.59,3805.11,4435.47,4526.76,3934.14,3977.4900000000002,4417.62,3572.04
3.75,4490.55,4699.14,4129.9800000000005,4190.67,4408.95,4714.4400000000005,4647.12,3803.07,4437.0,4529.82,3935.16,3976.4700000000003,4420.68,3572.55
3.7578125,4490.55,4702.2,4127.43,4187.1,4406.4,4714.4400000000005,4646.61,3804.09,4438.02,4531.86,3931.59,3972.9,4418.13,3572.55
3.765625,4486.9800000000005,4702.71,4128.45,4191.6900000000005,4406.4,4709.34,4645.08,3803.07,4437.51,4529.82,3935.16,3974.4300000000003,4418.64,3573.57
3.7734375,4487.49,4704.75,4128.45,4193.22,4407.93,4707.81,4647.12,3804.6,4436.49,4528.29,3935.67,3980.55,4419.66,3573.06
3.78125,4490.04,4703.7300000000005,4128.45,4194.75,4405.38,4709.34,4647.63,3806.64,4435.47,4528.8,3932.1,3981.06,4416.6,3574.08
3.7890625,4490.04,4699.14,4131.0,4194.75,4404.36,4710.87,4643.55,3802.56,4436.49,4529.31,3935.16,3974.4300000000003,4417.11,3575.1
3.796875,4486.47,4700.16,4129.9800000000005,4192.71,4407.42,4712.91,4644.57,3801.54,4438.53,4528.8,3934.65,3973.41,4419.66,3572.55
3.8046875,4489.53,4702.71,4129.9800000000005,4192.2,4408.4400000000005,4710.87,4645.08,3804.09,4437.51,4528.29,3933.12,3979.02,4419.66,3573.06
3.8125,4493.1,4701.6900000000005,4128.45,4196.79,4407.42,4708.83,4644.57,3803.07,4434.45,4527.78,3934.14,3976.98,4417.62,3573.57
3.8203125,4491.57,4700.16,4125.9,4198.83,4406.91,4708.83,4646.61,3803.58,4436.49,4527.78,3933.63,3973.92,4416.6,3570.51
3.828125,4490.55,4699.14,4125.9,4193.22,4406.91,4709.85,4646.61,3806.64,4438.53,4528.29,3932.61,3978.0,4416.6,3571.53
3.8359375,4488.51,4702.2,4128.45,4193.7300000000005,4409.97,4710.87,4646.61,3802.05,4434.45,4530.33,3932.1,3978.0,4416.09,3572.04
3.84375,4489.53,4703.22,4130.49,4195.26,4410.99,4709.34,4647.12,3800.52,4432.92,4531.86,3934.65,3975.4500000000003,4418.13,3575.1
3.8515625,4491.57,4699.14,4126.92,4196.28,4409.46,4711.89,4647.63,3806.13,4437.51,4528.29,3933.63,3976.98,4419.66,3576.12
3.859375,4489.02,4699.14,4128.45,4198.83,4407.93,4712.91,4645.59,3803.58,4438.53,4527.78,3933.12,3977.4900000000002,4417.62,3572.04
3.8671875,4489.53,4700.16,4132.53,4192.2,4405.89,4707.81,4644.06,3802.05,4437.0,4531.35,3935.67,3976.98,4419.66,3574.08
3.875,4493.1,4698.12,4128.96,4192.2,4406.91,4711.38,4646.1,3807.66,4436.49,4530.33,3932.1,3979.53,4420.17,3573.06
3.8828125,4492.08,4698.12,4126.41,4201.38,4408.4400000000005,4714.4400000000005,4644.06,3810.21,4435.9800000000005,4528.8,3930.06,3980.55,4419.15,3571.53
3.890625,4489.53,4699.65,4126.92,4196.79,4407.93,4709.85,4642.02,3807.15,4436.49,4530.84,3934.65,3975.96,4419.15,3574.59
3.8984375,4488.51,4697.61,4125.9,4188.63,4409.97,4709.85,4645.08,3803.07,4438.02,4530.33,3935.16,3974.94,4417.62,3574.08
3.90625,4490.55,4697.1,4126.41,4189.65,4412.01,4710.36,4644.06,3802.56,4438.02,4529.82,3932.1,3977.4900000000002,4417.62,3572.04
3.9140625,4490.04,4701.6900000000005,4126.41,4193.7300000000005,4410.4800000000005,4709.85,4644.06,3805.11,4435.9800000000005,4530.33,3930.57,3979.02,4419.15,3571.53
3.921875,4490.04,4702.71,4125.39,4194.75,4407.42,4710.87,4646.1,3807.15,4434.96,4529.82,3932.61,3983.1,4418.13,3573.06
3.9296875,4491.06,4699.14,4128.96,4192.71,4405.89,4711.89,4646.61,3805.11,4435.9800000000005,4527.78,3932.61,3981.06,4416.09,3573.06
3.9375,4486.47,4699.14,4131.51,4190.67,4407.42,4712.4,4646.61,3801.03,4435.9800000000005,4526.76,3929.04,3975.96,4417.11,3569.4900000000002
3.9453125,4485.45,4699.14,4128.45,4187.1,4407.93,4710.36,4645.08,3802.56,4436.49,4527.78,3932.61,3976.98,4419.66,3572.04
3.953125,4490.04,4699.65,4126.92,4194.75,4409.46,4709.34,4647.63,3805.11,4438.53,4525.74,3933.63,3978.51,4417.11,3573.06
3.9609375,4493.1,4702.2,4126.92,4201.38,4408.4400000000005,4712.4,4650.6900000000005,3804.6,4439.55,4524.72,3931.59,3979.02,4417.11,3570.51
3.96875,4493.61,4701.18,4126.41,4196.79,4405.89,4712.4,4647.12,3802.56,4439.55,4529.31,3934.14,3978.51,4419.66,3573.57
3.9765625,4489.53,4701.18,4127.43,4196.28,4407.42,4708.83,4646.1,3801.54,4437.51,4531.35,3934.65,3974.4300000000003,4419.66,3572.55
3.984375,4485.96,4704.75,4129.9800000000005,4190.67,4408.4400000000005,4709.34,4647.63,3803.58,4437.0,4529.31,3934.65,3974.94,4421.7,3571.02
3.9921875,4488.0,4703.7300000000005,4129.9800000000005,4189.14,4407.93,4711.89,4648.14,3805.62,4439.55,4531.35,3934.14,3979.53,4421.1900000000005,3574.59
4.0,4491.06,4700.16,4131.0,4200.36,4409.97,4710.36,4645.59,3802.05,4439.55,4531.35,3932.61,3979.02,4415.07,3574.08
4.0078125,4492.59,4698.63,4132.02,4197.3,4409.97,4707.3,4644.57,3799.5,4437.0,4527.27,3931.08,3976.98,4417.11,3571.53
4.015625,4489.53,4700.16,4126.41,4190.16,4408.95,4709.85,4647.63,3802.56,4435.47,4528.29,3932.1,3975.96,4420.68,3569.4900000000002
4.0234375,4486.9800000000005,4702.71,4127.43,4196.28,4408.4400000000005,4712.4,4647.12,3802.56,4434.96,4532.37,3936.1800000000003,3977.4900000000002,4419.15,3571.02
4.03125,4489.02,4701.6900000000005,4128.96,4199.85,4408.95,4712.4,4645.08,3801.54,4433.9400000000005,4531.86,3936.1800000000003,3976.98,4418.64,3572.04
4.0390625,4490.55,4699.14,4125.9,4200.36,4410.99,4712.4,4647.63,3803.58,4434.96,4529.82,3933.12,3973.92,4417.62,3571.02
4.046875,4491.57,4697.61,4129.9800000000005,4198.32,4409.46,4708.32,4648.14,3803.58,4435.9800000000005,4529.31,3934.65,3971.37,4418.13,3573.06
4.0546875,4491.57,4699.14,4131.0,4194.75,4406.91,4707.81,4646.61,3803.58,4436.49,4528.29,3933.12,3974.94,4418.64,3571.53
4.0625,4488.51,4699.14,4124.37,4201.38,4409.97,4710.36,4644.06,3804.09,4435.9800000000005,4530.84,3935.67,3979.53,4418.13,3574.59
4.0703125,4490.55,4697.61,4126.41,4198.32,4407.93,4711.38,4644.57,3801.03,4435.47,4529.82,3934.14,3976.4700000000003,4416.09,3572.55
4.078125,4491.06,4695.57,4128.96,4191.18,4408.95,4712.4,4642.02,3800.52,4437.51,4530.33,3933.63,3978.51,4416.6,3572.04
4.0859375,4488.51,4699.65,4128.96,4192.71,4411.5,4711.38,4643.55,3803.07,4436.49,4531.86,3932.61,3980.55,4415.07,3574.59
4.09375,4490.04,4702.71,4127.43,4201.38,4410.99,4709.85,4648.65,3804.6,4435.47,4530.84,3932.1,3981.06,4414.05,3574.59
4.1015625,4490.55,4697.1,4124.88,4200.36,4410.4800000000005,4708.83,4646.61,3806.64,4439.55,4529.82,3934.65,3979.02,4416.6,3572.55
4.109375,4486.9800000000005,4695.57,4125.39,4195.77,4410.4800000000005,4708.32,4644.06,3805.62,4440.06,4530.33,3932.1,3976.4700000000003,4416.6,3571.53
4.1171875,4491.06,4700.16,4126.41,4190.16,4408.95,4708.32,4644.06,3803.07,4436.49,4529.82,3930.06,3980.04,4416.6,3572.55
4.125,4490.55,4703.7300000000005,4124.88,4189.14,4409.97,4710.36,4647.63,3803.07,4435.9800000000005,4529.31,3933.12,3979.53,4418.13,3572.04
4.1328125,4484.9400000000005,4700.67,4125.9,4194.24,4409.46,4710.36,4647.63,3802.05,4435.9800000000005,4529.31,3934.14,3974.4300000000003,4418.13,3572.55
4.140625,4491.06,4697.61,4127.43,4191.6900000000005,4404.87,4709.34,4643.55,3802.56,4436.49,4529.31,3933.12,3974.94,4418.13,3572.55
4.1484375,4494.63,4700.67,4126.92,4190.16,4407.93,4713.42,4646.61,3804.09,4438.02,4528.8,3932.61,3976.98,4417.62,3569.4900000000002
4.15625,4490.55,4702.71,4128.96,4193.22,4410.4800000000005,4712.4,4648.14,3802.56,4435.47,4529.82,3934.14,3976.98,4417.62,3573.57
4.1640625,4491.06,4703.22,4127.43,4196.79,4406.4,4710.36,4645.08,3802.05,4432.41,4529.31,3933.12,3976.4700000000003,4416.6,3574.59
4.171875,4492.59,4703.7300000000005,4127.43,4200.36,4407.42,4712.4,4646.1,3804.6,4434.96,4529.31,3931.08,3975.4500000000003,4416.6,3570.51
4.1796875,4490.04,4701.18,4132.02,4197.81,4409.46,4712.4,4647.12,3802.56,4437.0,4530.84,3935.16,3972.9,4418.64,3573.57
4.1875,4488.0,4700.16,4131.51,4194.24,4408.4400000000005,4711.89,4645.08,3798.48,4432.92,4530.33,3934.65,3971.37,4417.62,3574.08
4.1953125,4488.51,4700.16,4129.47,4193.22,4408.4400000000005,4710.36,4645.08,3802.56,4432.92,4530.33,3932.61,3974.94,4417.11,3571.02
4.203125,4490.04,4700.67,4127.9400000000005,4196.79,4409.46,4708.83,4647.12,3808.17,4437.0,4530.84,3935.16,3977.4900000000002,4417.62,3570.51
4.2109375,4490.55,4703.22,4125.9,4199.34,4408.95,4710.36,4647.63,3805.62,4437.0,4530.84,3934.65,3976.4700000000003,4417.11,3571.02
4.21875,4489.02,4699.65,4129.9800000000005,4191.6900000000005,4408.4400000000005,4712.4,4645.08,3801.03,4438.02,4529.31,3932.1,3975.4500000000003,4419.15,3573.06
4.2265625,4488.51,4696.59,4133.55,4189.65,4408.4400000000005,4713.93,4646.61,3799.5,4441.59,4529.31,3929.55,3975.4500000000003,4420.17,3572.55
4.234375,4492.08,4700.67,4130.49,4196.28,4406.91,4711.38,4648.14,3804.09,4439.55,4529.82,3933.63,3979.02,4420.17,3571.53
4.2421875,4491.57,4701.6900000000005,4125.9,4198.83,4405.38,4709.34,4645.59,3808.17,4434.96,4528.8,3935.67,3980.55,4418.64,3573.06
4.25,4486.9800000000005,4699.14,4127.43,4199.34,4406.91,4711.38,4645.08,3803.07,4434.96,4528.29,3932.1,3978.0,4417.11,3572.04
4.2578125,4488.51,4701.18,4131.0,4192.71,4409.97,4710.36,4643.55,3801.54,4437.0,4530.33,3932.61,3975.4500000000003,4418.13,3570.51
4.265625,4489.02,4704.75,4125.9,4187.61,4412.01,4709.85,4644.06,3806.13,4435.47,4531.86,3933.12,3974.4300000000003,4417.62,3571.02
4.2734375,4489.02,4703.22,4124.88,4193.22,4410.99,4711.38,4647.63,3805.62,4434.45,4529.82,3932.61,3976.4700000000003,4418.13,3573.06
4.28125,4493.61,4699.65,4129.9800000000005,4195.26,4408.4400000000005,4709.85,4646.1,3803.07,4437.0,4529.82,3932.1,3979.02,4419.66,3574.08
4.2890625,4490.55,4699.14,4127.9400000000005,4192.2,4407.42,4710.36,4645.59,3804.09,4435.47,4529.31,3930.57,3976.4700000000003,4417.62,3572.55
4.296875,4485.96,4700.67,4126.41,4192.2,4407.93,4710.87,4648.14,3802.05,4433.43,4527.78,3932.61,3976.98,4417.62,3573.06
4.3046875,4488.0,4700.67,4127.9400000000005,4191.6900000000005,4408.4400000000005,4709.85,4648.65,3802.05,4435.47,4528.8,3933.63,3980.04,4419.15,3572.55
4.3125,4490.04,4703.22,4127.43,4193.7300000000005,4408.4400000000005,4709.85,4646.1,3803.58,4435.47,4530.33,3933.12,3980.55,4418.64,3570.0
4.3203125,4490.55,4703.22,4126.92,4196.28,4406.91,4708.83,4643.04,3803.58,4435.9800000000005,4528.29,3933.12,3977.4900000000002,4420.17,3571.53
4.328125,4492.08,4700.16,4126.92,4195.77,4407.42,4708.83,4645.08,3804.09,4438.02,4527.78,3930.06,3974.94,4416.6,3571.53
4.3359375,4490.04,4697.61,4127.43,4193.22,4408.4400000000005,4708.83,4646.1,3804.6,4437.0,4530.84,3932.1,3977.4900000000002,4414.05,3570.51
4.34375,4488.51,4699.65,4124.37,4191.18,4407.93,4710.87,4646.61,3805.11,4433.9400000000005,4530.84,3933.12,3977.4900000000002,4418.13,3572.04
4.3515625,4491.06,4703.22,4123.86,4194.75,4406.4,4712.4,4647.12,3807.66,4435.47,4527.78,3929.55,3977.4900000000002,4419.66,3571.02
4.359375,4492.08,4701.6900000000005,4128.45,4194.24,4405.38,4710.36,4645.59,3805.11,4439.04,4530.84,3931.59,3975.96,4419.66,3570.51
4.3671875,4489.53,4700.67,4129.47,4191.6900000000005,4407.42,4710.87,4647.12,3798.9900000000002,4438.02,4534.41,3933.12,3971.37,4417.62,3571.53
4.375,4485.45,4701.18,4127.43,4192.71,4407.93,4712.91,4648.14,3800.01,4434.96,4531.86,3935.16,3972.9,4415.58,3573.57
4.3828125,4488.51,4701.6900000000005,4127.43,4196.79,4406.4,4713.93,4648.65,3806.64,4432.92,4530.84,3936.69,3976.4700000000003,4416.6,3576.63
4.390625,4492.59,4702.71,4128.96,4204.95,4407.42,4712.4,4649.16,3807.66,4435.47,4531.35,3934.14,3976.98,4417.11,3574.08
4.3984375,4487.49,4699.14,4128.45,4197.3,4408.95,4710.36,4646.1,3804.6,4439.55,4529.82,3934.14,3976.4700000000003,4418.13,3571.02
4.40625,4485.45,4698.63,4125.9,4187.1,4409.97,4710.87,4646.61,3803.58,4437.51,4529.31,3932.61,3974.94,4417.11,3573.57
4.4140625,4488.51,4703.22,4126.92,4193.22,4409.46,4712.4,4648.14,3804.09,4434.96,4528.8,3933.63,3976.4700000000003,4416.6,3573.57
4.421875,4488.51,4701.18,4127.43,4195.77,4407.93,4709.85,4645.59,3806.64,4437.51,4526.76,3934.65,3982.08,4419.66,3573.06
4.4296875,4488.51,4696.08,4124.88,4193.7300000000005,4407.93,4709.34,4647.63,3804.6,4439.04,4526.25,3931.08,3980.55,4419.15,3573.57
4.4375,4489.53,4696.59,4127.43,4195.26,4406.91,4711.38,4647.12,3801.03,4438.53,4529.82,3934.14,3975.96,4417.11,3575.1
4.4453125,4490.55,4700.16,4128.45,4194.24,4405.89,4712.91,4644.06,3803.58,4436.49,4531.86,3935.67,3978.0,4418.64,3575.61
4.453125,4490.04,4700.16,4125.9,4196.28,4406.91,4712.91,4646.1,3807.66,4434.96,4530.84,3932.1,3980.04,4420.17,3571.02
4.4609375,4491.57,4698.63,4125.9,4197.81,4405.89,4710.87,4646.61,3808.17,4439.04,4528.29,3931.59,3979.53,4419.15,3568.98
4.46875,4492.08,4697.61,4127.43,4194.24,4405.89,4713.42,4644.06,3805.62,4439.55,4528.29,3930.57,3979.02,4416.6,3572.04
4.4765625,4490.55,4695.57,4130.49,4190.67,4406.4,4713.93,4642.53,3804.6,4435.9800000000005,4530.84,3931.59,3979.02,4415.58,3575.61
4.484375,4491.57,4699.14,4131.0,4193.7300000000005,4406.91,4708.32,4645.08,3805.62,4434.96,4530.33,3932.61,3976.98,4417.62,3575.1
4.4921875,4490.55,4703.22,4127.9400000000005,4193.22,4409.46,4708.32,4645.08,3805.11,4435.47,4527.78,3931.59,3980.55,4418.64,3574.08
4.5,4488.0,4700.67,4127.43,4188.63,4409.46,4711.89,4642.02,3806.13,4436.49,4528.8,3932.1,3982.59,4418.64,3576.12
4.5078125,4490.04,4700.16,4132.53,4192.71,4408.95,4711.38,4646.1,3802.05,4435.47,4530.33,3929.55,3973.41,4418.13,3573.06
4.515625,4491.06,4701.18,4133.55,4193.7300000000005,4408.4400000000005,4707.81,4646.61,3796.9500000000003,4433.9400000000005,4528.29,3930.57,3971.88,4419.66,3571.53
4.5234375,4489.53,4699.65,4126.92,4190.16,4408.4400000000005,4709.34,4643.04,3800.52,4434.96,4526.76,3934.65,3977.4900000000002,4419.66,3573.57
4.53125,4488.51,4702.2,4124.37,4197.3,4408.4400000000005,4712.91,4644.57,3803.07,4437.0,4528.29,3933.63,3978.0,4416.6,3575.1
4.5390625,4491.57,4701.6900000000005,4128.96,4201.89,4408.4400000000005,4709.85,4646.1,3803.07,4435.47,4530.33,3933.12,3978.0,4416.09,3576.63
4.546875,4492.08,4697.1,4127.9400000000005,4198.83,4410.99,4709.34,4645.59,3803.07,4434.96,4529.31,3932.61,3976.4700000000003,4417.11,3575.61
4.5546875,4491.57,4697.61,4127.43,4194.24,4409.97,4713.42,4644.57,3798.9900000000002,4438.02,4527.27,3932.61,3976.4700000000003,4418.13,3574.08
4.5625,4489.02,4702.71,4129.47,4189.65,4408.95,4712.91,4643.55,3798.48,4437.0,4529.31,3933.12,3975.4500000000003,4418.64,3575.1
4.5703125,4487.49,4706.79,4125.9,4198.83,4410.4800000000005,4709.85,4646.1,3802.56,4434.96,4529.82,3932.1,3974.4300000000003,4416.09,3574.08
4.578125,4493.1,4702.2,4125.9,4205.46,4407.93,4710.87,4647.12,3803.58,4434.96,4528.29,3934.14,3974.4300000000003,4418.13,3572.04
4.5859375,4494.12,4698.12,4128.45,4196.79,4406.91,4714.4400000000005,4646.61,3802.05,4433.9400000000005,4528.8,3932.1,3973.92,4418.64,3573.57
4.59375,4490.04,4701.6900000000005,4129.9800000000005,4193.7300000000005,4409.46,4711.89,4645.59,3801.54,4432.92,4531.35,3930.06,3976.4700000000003,4415.58,3575.1
4.6015625,4491.57,4702.2,4128.45,4195.26,4408.4400000000005,4708.32,4645.59,3802.56,4434.96,4531.35,3933.12,3978.51,4417.62,3575.1
4.609375,4493.1,4700.67,4123.35,4198.32,4406.4,4710.87,4648.14,3804.6,4434.96,4527.78,3933.12,3978.0,4418.13,3574.59
4.6171875,4493.1,4699.65,4127.43,4200.87,4406.91,4710.87,4646.1,3803.07,4436.49,4528.8,3934.65,3979.02,4418.13,3575.1
4.625,4493.1,4699.65,4132.53,4198.32,4407.42,4708.83,4644.57,3799.5,4439.55,4531.86,3935.67,3979.02,4418.64,3571.53
4.6328125,4490.04,4700.67,4128.96,4194.24,4407.93,4709.34,4645.59,3802.05,4438.02,4529.82,3935.16,3978.0,4418.13,3570.0
4.640625,4487.49,4699.65,4126.41,4194.24,4409.46,4706.79,4642.53,3805.62,4435.9800000000005,4526.76,3935.67,3978.51,4419.15,3574.08
4.6484375,4490.55,4698.12,4126.92,4199.34,4407.42,4706.79,4643.55,3803.07,4435.9800000000005,4528.29,3933.63,3976.98,4419.66,3573.06
4.65625,4494.12,4696.59,4129.47,4195.26,4404.87,4710.87,4644.06,3801.54,4436.49,4529.82,3934.14,3974.4300000000003,4418.13,3572.55
4.6640625,4492.59,4696.59,4128.96,4189.65,4407.42,4712.91,4643.55,3802.56,4436.49,4529.82,3935.67,3973.92,4416.09,3574.08
4.671875,4488.51,4700.16,4126.41,4194.75,4410.4800000000005,4710.36,4646.61,3803.58,4435.47,4529.82,3936.1800000000003,3975.4500000000003,4416.6,3572.55
4.6796875,4490.04,4699.65,4123.86,4194.75,4407.42,4707.81,4646.61,3807.15,4434.96,4527.78,3934.65,3981.57,4416.6,3573.06
4.6875,4490.55,4697.1,4121.82,4193.22,4406.91,4711.38,4646.61,3806.64,4435.9800000000005,4527.27,3931.59,3981.06,4414.05,3572.04
4.6953125,4487.49,4697.61,4127.43,4191.18,4409.46,4711.38,4645.59,3801.03,4435.9800000000005,4527.78,3932.1,3974.94,4417.11,3570.51
4.703125,4490.55,4700.67,4130.49,4187.61,4408.95,4711.89,4644.06,3802.56,4436.49,4527.27,3933.63,3972.9,4419.66,3573.57
4.7109375,4493.61,4702.71,4126.92,4193.22,4407.93,4715.97,4647.63,3805.62,4437.51,4528.29,3931.08,3975.96,4417.11,3574.08
4.71875,4492.59,4701.18,4124.37,4198.83,4407.93,4712.91,4647.12,3804.09,4437.51,4531.86,3931.59,3976.98,4418.13,3572.55
4.7265625,4491.57,4699.65,4125.39,4196.79,4410.4800000000005,4711.38,4644.57,3803.07,4437.51,4531.35,3933.63,3975.4500000000003,4420.17,3571.53
4.734375,4492.08,4700.67,4128.45,4195.26,4409.46,4712.4,4645.59,3803.58,4438.02,4528.8,3933.63,3975.4500000000003,4419.15,3572.55
4.7421875,4492.08,4702.71,4127.9400000000005,4193.22,4407.42,4709.85,4647.63,3803.07,4437.0,4528.8,3933.12,3976.4700000000003,4418.13,3572.55
4.75,4489.02,4701.18,4125.39,4193.7300000000005,4408.4400000000005,4708.83,4649.67,3803.07,4435.47,4530.33,3932.1,3977.4900000000002,4417.11,3571.02
4.7578125,4487.49,4698.12,4127.9400000000005,4198.83,4407.42,4708.32,4648.14,3804.6,4434.96,4529.82,3934.14,3979.02,4417.11,3571.53
4.765625,4488.51,4701.18,4131.0,4201.38,4406.4,4709.34,4647.12,3802.05,4434.96,4527.27,3932.61,3975.96,4417.11,3571.02
4.7734375,4490.04,4701.6900000000005,4126.92,4196.79,4408.4400000000005,4711.89,4645.59,3801.03,4437.0,4528.8,3932.61,3976.4700000000003,4417.62,3571.53
4.78125,4487.49,4697.61,4124.88,4193.22,4408.4400000000005,4710.87,4645.59,3804.6,4437.51,4530.33,3936.1800000000003,3976.98,4418.13,3573.06
4.7890625,4484.9400000000005,4699.65,4127.9400000000005,4199.34,4407.42,4710.36,4648.14,3806.13,4435.9800000000005,4529.31,3933.12,3974.4300000000003,4417.62,3570.0
4.796875,4488.0,4700.16,4127.43,4197.81,4407.42,4710.36,4648.65,3805.11,4438.53,4530.33,3932.1,3978.51,4418.13,3570.51
4.8046875,4489.02,4697.61,4124.37,4192.2,4407.42,4710.36,4648.65,3804.6,4439.04,4531.86,3933.12,3977.4900000000002,4415.58,3571.02
4.8125,4485.45,4698.63,4126.41,4195.26,4405.38,4710.36,4648.65,3804.6,4436.49,4529.82,3933.63,3972.9,4416.09,3568.98
4.8203125,4484.9400000000005,4700.67,4126.41,4194.24,4406.91,4711.89,4646.61,3808.6800000000003,4438.02,4528.29,3935.67,3977.4900000000002,4419.66,3569.4900000000002
4.828125,4485.45,4701.6900000000005,4120.29,4194.75,4410.99,4714.95,4650.18,3810.7200000000003,4438.53,4528.8,3931.08,3981.57,4418.64,3567.4500000000003
4.8359375,4486.47,4700.16,4122.84,4192.71,4408.4400000000005,4714.4400000000005,4650.18,3805.62,4436.49,4529.82,3930.57,3977.4900000000002,4416.09,3569.4900000000002
4.84375,4486.47,4697.61,4124.88,4188.12,4408.4400000000005,4712.91,4648.14,3804.09,4438.02,4530.33,3933.63,3973.41,4417.11,3572.55
4.8515625,4485.45,4698.12,4124.88,4192.71,4411.5,4711.38,4647.63,3804.6,4436.49,4531.35,3931.59,3976.4700000000003,4417.62,3571.02
4.859375,4489.53,4698.63,4127.9400000000005,4195.77,4407.93,4709.34,4643.04,3805.62,4435.47,4531.86,3931.08,3979.53,4419.66,3572.55
4.8671875,4492.59,4698.12,4126.92,4196.79,4406.4,4710.36,4643.55,3807.66,4438.02,4529.82,3932.61,3980.04,4418.64,3571.53
4.875,4490.04,4699.14,4127.43,4198.83,4408.4400000000005,4709.34,4647.12,3805.62,4440.06,4527.27,3934.65,3978.51,4417.11,3570.51
4.8828125,4488.51,4701.6900000000005,4127.9400000000005,4190.16,4407.93,4706.79,4646.1,3803.58,4439.04,4528.8,3933.63,3977.4900000000002,4419.66,3573.06
4.890625,4488.51,4703.7300000000005,4124.88,4183.53,4407.42,4709.34,4645.08,3803.07,4435.9800000000005,4530.33,3930.57,3979.53,4420.17,3572.04
4.8984375,4489.02,4703.22,4127.43,4193.7300000000005,4407.93,4711.38,4643.55,3803.58,4434.96,4528.29,3932.1,3980.55,4418.64,3572.04
4.90625,4487.49,4703.7300000000005,4129.9800000000005,4201.38,4408.95,4709.34,4645.59,3801.54,4437.0,4524.21,3933.12,3977.4900000000002,4416.6,3573.57
4.9140625,4489.02,4701.6900000000005,4127.9400000000005,4193.22,4408.95,4706.79,4646.61,3798.9900000000002,4439.04,4525.74,3933.63,3978.51,4415.07,3574.08
4.921875,4493.61,4698.63,4127.43,4188.63,4407.42,4707.3,4646.1,3801.03,4438.02,4530.33,3934.14,3977.4900000000002,4417.62,3573.06
4.9296875,4491.06,4701.18,4128.45,4196.28,4407.93,4709.34,4646.61,3802.56,4435.47,4530.33,3932.1,3972.9,4419.15,3570.0
4.9375,4490.04,4700.16,4126.41,4197.81,4408.4400000000005,4708.32,4642.02,3805.11,4437.0,4528.8,3935.16,3974.94,4418.64,3571.53
4.9453125,4492.08,4698.12,4125.39,4198.32,4408.95,4709.34,4642.53,3805.11,4438.53,4527.78,3934.65,3974.4300000000003,4414.56,3573.06
4.953125,4491.57,4701.18,4127.9400000000005,4199.34,4407.93,4710.36,4647.63,3801.03,4435.9800000000005,4528.8,3932.1,3974.4300000000003,4414.05,3571.02
4.9609375,4490.04,4700.16,4127.43,4193.22,4405.89,4706.79,4647.12,3801.54,4436.49,4528.8,3933.12,3978.0,4418.64,3571.53
4.96875,4488.51,4700.67,4124.37,4194.75,4408.4400000000005,4709.34,4645.59,3804.09,4437.51,4527.78,3933.12,3976.4700000000003,4418.13,3574.08
4.9765625,4490.55,4703.7300000000005,4125.9,4198.32,4409.46,4713.93,4645.59,3802.56,4435.47,4528.29,3933.63,3976.4700000000003,4417.11,3573.57
4.984375,4491.57,4700.67,4128.96,4194.75,4407.42,4712.4,4646.61,3802.56,4434.96,4531.35,3933.63,3979.53,4418.13,3571.02
4.9921875,4490.04,4695.06,4129.47,4194.24,4407.93,4710.87,4646.61,3803.07,4437.51,4531.35,3934.14,3977.4900000000002,4418.13,3571.02
5.0,4491.06,4696.59,4129.47,4193.7300000000005,4409.46,4711.38,4645.08,3802.05,4437.51,4529.31,3936.1800000000003,3972.9,4419.66,3574.08
5.0078125,4491.57,4702.2,4126.92,4196.28,4408.95,4713.42,4647.12,3804.09,4434.96,4529.31,3933.63,3974.4300000000003,4417.62,3572.04
5.015625,4492.59,4700.16,4126.92,4197.81,4407.42,4708.83,4646.61,3807.66,4435.9800000000005,4528.8,3934.14,3977.4900000000002,4416.09,3571.02
5.0234375,4493.1,4697.61,4127.43,4191.18,4406.4,4704.75,4644.06,3804.09,4437.0,4528.29,3935.67,3975.96,4416.6,3573.57
5.03125,4490.55,4701.18,4128.45,4186.08,4406.4,4709.85,4644.57,3801.03,4435.9800000000005,4529.82,3932.61,3974.4300000000003,4416.09,3572.04
5.0390625,4490.04,4702.2,4132.02,4185.57,4406.91,4713.42,4645.08,3805.11,4435.9800000000005,4531.35,3933.63,3975.4500000000003,4417.11,3572.55
5.046875,4492.08,4701.6900000000005,4128.45,4191.6900000000005,4405.38,4711.89,4646.1,3806.64,4435.47,4529.31,3935.16,3976.98,4417.62,3572.04
5.0546875,4492.08,4701.6900000000005,4125.39,4193.7300000000005,4404.36,4708.32,4644.57,3803.07,4435.47,4526.76,3936.69,3978.0,4417.11,3572.55
5.0625,4491.06,4701.6900000000005,4131.51,4194.24,4408.95,4712.4,4646.61,3801.03,4435.9800000000005,4531.86,3933.12,3973.41,4418.64,3571.53
5.0703125,4491.57,4702.2,4130.49,4193.7300000000005,4408.4400000000005,4708.83,4647.12,3804.09,4434.96,4528.8,3935.16,3978.0,4419.66,3574.08
5.078125,4488.51,4700.67,4126.92,4196.79,4408.4400000000005,4707.3,4645.59,3803.58,4434.96,4525.74,3934.14,3976.4700000000003,4418.64,3574.59
5.0859375,4487.49,4699.65,4128.45,4198.32,4405.89,4707.3,4646.1,3801.54,4436.49,4528.29,3932.61,3972.9,4419.15,3573.06
5.09375,4490.04,4698.12,4128.96,4191.6900000000005,4404.36,4707.3,4645.59,3805.62,4437.51,4531.35,3935.16,3975.4500000000003,4419.15,3572.55
5.1015625,4488.0,4700.67,4125.9,4194.24,4407.42,4710.36,4646.61,3808.6800000000003,4434.45,4529.82,3933.12,3978.51,4417.62,3571.53
5.109375,4488.0,4703.7300000000005,4126.92,4195.77,4406.91,4709.34,4645.08,3805.62,4432.41,4528.8,3932.1,3976.4700000000003,4419.66,3572.55
5.1171875,4489.02,4701.6900000000005,4124.88,4192.71,4406.91,4708.83,4646.61,3803.58,4435.47,4530.33,3933.12,3974.4300000000003,4418.13,3572.04
5.125,4485.45,4699.14,4124.88,4196.79,4408.4400000000005,4710.36,4649.67,3802.05,4437.51,4530.33,3931.59,3974.94,4414.56,3570.51
5.1328125,4486.47,4700.16,4129.47,4194.75,4405.38,4710.87,4647.12,3801.54,4436.49,4527.78,3933.12,3974.4300000000003,4416.09,3572.04
5.140625,4489.02,4700.16,4126.92,4194.24,4404.87,4714.95,4644.57,3803.07,4435.9800000000005,4528.29,3933.12,3974.4300000000003,4419.66,3572.55
5.1484375,4489.53,4698.12,4125.39,4200.36,4408.4400000000005,4713.93,4644.57,3805.11,4435.9800000000005,4529.31,3931.59,3975.4500000000003,4421.7,3574.08
5.15625,4489.53,4699.14,4128.96,4198.32,4407.42,4708.83,4648.14,3805.62,4435.47,4528.29,3929.55,3975.4500000000003,4418.64,3572.04
5.1640625,4486.9800000000005,4699.65,4128.96,4193.7300000000005,4405.89,4708.83,4646.61,3803.07,4434.45,4529.31,3931.08,3975.96,4415.58,3570.51
5.171875,4486.9800000000005,4700.16,4127.43,4191.18,4406.91,4710.36,4642.53,3802.56,4434.96,4531.35,3934.65,3976.4700000000003,4418.13,3573.06
5.1796875,4489.02,4702.2,4126.92,4192.2,4408.4400000000005,4708.83,4646.61,3805.62,4433.9400000000005,4529.82,3932.1,3975.4500000000003,4420.17,3571.02
5.1875,4488.51,4699.65,4128.96,4196.28,4406.4,4708.32,4648.14,3806.13,4435.9800000000005,4529.82,3932.1,3979.53,4419.15,3570.0
5.1953125,4487.49,4696.08,4127.9400000000005,4196.28,4407.42,4711.38,4645.59,3806.13,4440.06,4531.86,3933.12,3980.04,4417.11,3575.61
5.203125,4489.02,4697.61,4124.88,4192.71,4410.4800000000005,4712.4,4647.12,3804.09,4438.02,4530.84,3934.14,3976.4700000000003,4415.07,3571.53
5.2109375,4490.55,4697.61,4125.9,4187.1,4409.46,4708.32,4646.1,3803.58,4435.9800000000005,4530.33,3936.69,3978.0,4419.66,3566.94
5.21875,4488.51,4698.63,4126.41,4193.7300000000005,4408.4400000000005,4707.3,4647.12,3805.62,4436.49,4531.86,3934.65,3978.51,4420.68,3571.02
5.2265625,4488.0,4699.65,4128.45,4199.85,4407.93,4711.89,4647.63,3807.66,4439.04,4529.31,3935.16,3978.51,4417.62,3572.55
5.234375,4489.53,4696.59,4129.47,4194.24,4407.42,4712.4,4645.59,3807.66,4441.08,4527.27,3937.71,3976.98,4418.13,3571.53
5.2421875,4489.53,4699.65,4127.9400000000005,4194.75,4408.4400000000005,4711.38,4645.59,3803.07,4435.9800000000005,4529.31,3935.67,3973.92,4418.64,3571.02
5.25,4490.04,4704.24,4126.41,4193.22,4409.46,4710.87,4643.55,3804.09,4430.37,4531.35,3934.14,3976.98,4418.13,3571.53
5.2578125,4489.02,4703.22,4122.33,4190.16,4409.97,4711.38,4642.53,3808.6800000000003,4433.43,4529.31,3931.59,3979.53,4419.15,3571.02
5.265625,4490.04,4699.14,4128.45,4196.28,4407.93,4710.36,4644.57,3803.58,4439.04,4528.29,3933.63,3976.98,4419.15,3571.53
5.2734375,4493.61,4698.12,4135.59,4194.75,4405.89,4707.81,4645.08,3798.48,4439.55,4527.78,3938.2200000000003,3971.88,4418.64,3574.59
5.28125,4491.06,4702.2,4131.51,4192.2,4408.4400000000005,4709.85,4646.61,3801.03,4436.49,4527.27,3933.12,3971.88,4417.62,3574.08
5.2890625,4488.0,4701.6900000000005,4127.9400000000005,4198.32,4408.4400000000005,4709.85,4646.61,3804.09,4435.9800000000005,4529.82,3931.08,3976.98,4418.64,3572.55
5.296875,4492.08,4702.2,4127.9400000000005,4201.89,4406.91,4708.83,4647.12,3806.13,4437.0,4530.33,3933.63,3975.96,4419.66,3571.02
5.3046875,4493.1,4704.75,4126.92,4200.87,4408.95,4710.87,4647.63,3806.13,4438.02,4531.35,3931.08,3974.94,4418.64,3570.51
5.3125,4489.02,4699.65,4127.9400000000005,4197.3,4409.97,4711.38,4644.06,3802.05,4439.04,4532.88,3932.61,3976.98,4417.62,3574.59
5.3203125,4489.02,4698.63,4127.9400000000005,4194.75,4409.46,4710.36,4644.57,3802.56,4435.47,4530.33,3934.65,3974.4300000000003,4416.6,3574.08
5.328125,4490.55,4701.6900000000005,4125.39,4193.22,4408.4400000000005,4707.3,4647.12,3809.19,4434.45,4529.31,3935.67,3977.4900000000002,4417.11,3571.53
5.3359375,4491.57,4698.63,4123.86,4197.81,4408.4400000000005,4709.34,4648.65,3807.66,4438.53,4530.33,3933.12,3978.51,4417.11,3573.06
5.34375,4492.08,4697.61,4126.41,4201.89,4409.46,4713.93,4646.1,3801.03,4439.04,4527.27,3930.57,3974.94,4415.07,3574.59
5.3515625,4490.04,4700.16,4128.96,4191.18,4409.46,4711.89,4644.06,3803.07,4439.55,4525.2300000000005,3934.65,3976.98,4417.11,3573.57
5.359375,4486.9800000000005,4702.71,4127.43,4187.61,4410.4800000000005,4711.89,4650.18,3805.62,4439.04,4529.31,3935.16,3977.4900000000002,4415.58,3570.0
5.3671875,4491.06,4701.18,4125.9,4194.75,4410.4800000000005,4712.91,4648.65,3804.6,4436.49,4530.84,3936.1800000000003,3976.98,4415.07,3567.96
5.375,4494.63,4696.08,4125.39,4196.28,4405.89,4711.89,4644.06,3805.11,4437.51,4529.82,3936.1800000000003,3979.53,4418.13,3572.04
5.3828125,4491.06,4697.61,4125.9,4196.28,4406.4,4711.89,4647.12,3804.6,4439.55,4530.84,3932.61,3979.02,4416.6,3574.08
5.390625,4490.55,4703.22,4128.96,4190.67,4409.46,4709.85,4646.1,3804.6,4437.0,4530.84,3932.1,3975.96,4418.64,3575.1
5.3984375,4492.59,4701.6900000000005,4124.88,4187.1,4409.97,4708.83,4645.08,3806.64,4435.9800000000005,4528.8,3932.61,3976.98,4420.17,3574.08
5.40625,4490.55,4698.63,4122.84,4191.6900000000005,4409.46,4713.42,4647.12,3802.56,4437.0,4526.76,3934.65,3978.0,4417.11,3574.08
5.4140625,4492.59,4698.12,4125.9,4189.65,4408.4400000000005,4715.46,4646.61,3798.48,4437.0,4525.2300000000005,3934.14,3974.94,4416.6,3575.61
5.421875,4494.12,4697.61,4127.43,4188.12,4408.4400000000005,4712.91,4648.14,3802.05,4435.9800000000005,4526.25,3931.59,3972.9,4418.13,3572.55
5.4296875,4491.57,4699.14,4129.47,4193.7300000000005,4406.91,4710.36,4646.1,3804.6,4434.45,4528.8,3935.16,3974.94,4417.11,3571.53
5.4375,4491.06,4703.22,4125.9,4196.79,4406.91,4713.42,4646.61,3804.6,4434.45,4526.76,3936.1800000000003,3976.4700000000003,4415.07,3571.53
5.4453125,4490.04,4702.2,4123.35,4195.26,4408.4400000000005,4715.46,4648.14,3805.11,4437.51,4523.7,3934.65,3976.98,4417.11,3570.0
5.453125,4489.02,4698.12,4127.43,4195.77,4406.4,4709.85,4644.06,3805.62,4439.55,4526.76,3934.14,3974.4300000000003,4420.17,3572.55
5.4609375,4489.02,4699.14,4126.92,4194.75,4406.4,4708.83,4644.57,3803.07,4438.53,4530.33,3932.61,3972.9,4418.13,3572.55
5.46875,4489.53,4700.16,4125.9,4188.63,4408.4400000000005,4711.38,4646.61,3802.56,4438.02,4529.31,3935.16,3975.4500000000003,4416.09,3572.04
5.4765625,4492.59,4701.6900000000005,4126.41,4193.7300000000005,4409.46,4709.34,4646.61,3805.11,4436.49,4527.27,3935.16,3975.4500000000003,4416.6,3573.06
5.484375,4491.06,4701.18,4125.39,4201.38,4408.4400000000005,4706.79,4645.08,3806.13,4434.96,4527.27,3932.1,3975.96,4417.62,3574.59
5.4921875,4487.49,4697.61,4127.43,4193.22,4407.42,4706.79,4644.06,3805.11,4437.51,4529.31,3934.14,3976.98,4417.62,3574.59
5.5,4488.51,4698.12,4129.9800000000005,4190.67,4408.95,4709.85,4648.65,3800.52,4436.49,4530.84,3933.12,3974.94,4417.11,3571.53
5.5078125,4490.04,4699.65,4128.96,4193.7300000000005,4409.46,4709.34,4647.63,3801.03,4433.9400000000005,4530.33,3933.12,3976.4700000000003,4416.6,3572.04
5.515625,4489.02,4699.14,4125.39,4194.24,4410.99,4709.85,4645.08,3806.64,4436.49,4529.82,3933.63,3978.51,4416.09,3574.59
5.5234375,4486.47,4699.14,4126.92,4201.89,4410.99,4710.36,4646.61,3804.6,4437.0,4528.8,3932.1,3976.4700000000003,4418.13,3573.06
5.53125,4488.51,4699.14,4128.96,4197.3,4407.93,4710.36,4647.12,3801.54,4436.49,4529.31,3934.65,3974.94,4422.72,3571.02
5.5390625,4491.57,4700.67,4125.9,4189.65,4408.4400000000005,4712.91,4648.65,3804.09,4438.53,4531.86,3933.12,3974.94,4420.17,3571.02
5.546875,4489.53,4701.18,4126.92,4197.81,4408.95,4711.38,4645.59,3805.62,4437.51,4530.84,3933.12,3978.51,4418.64,3572.55
5.5546875,4488.0,4697.61,4128.96,4199.34,4407.42,4709.34,4644.06,3805.62,4434.45,4528.29,3935.16,3978.51,4419.15,3572.04
5.5625,4489.02,4695.57,4128.96,4195.77,4407.42,4711.89,4648.14,3806.13,4436.49,4528.8,3935.67,3975.4500000000003,4414.56,3568.4700000000003
5.5703125,4491.06,4698.12,4129.47,4192.71,4406.4,4710.87,4645.59,3805.62,4437.51,4530.33,3937.71,3976.98,4417.11,3571.53
5.578125,4491.06,4700.16,4126.41,4192.2,4405.38,4709.85,4645.08,3805.62,4433.9400000000005,4530.33,3934.65,3979.53,4419.66,3574.08
5.5859375,4489.02,4699.65,4124.88,4194.75,4407.42,4710.36,4647.63,3807.66,4433.9400000000005,4530.84,3934.14,3983.61,4416.6,3571.53
5.59375,4488.51,4699.14,4126.92,4193.22,4407.42,4708.83,4645.59,3807.15,4437.51,4532.88,3936.1800000000003,3982.08,4418.64,3573.57
5.6015625,4491.57,4699.65,4127.9400000000005,4190.67,4406.4,4709.85,4644.06,3802.56,4437.51,4529.31,3931.59,3973.92,4420.17,3574.08
5.609375,4491.06,4698.12,4128.96,4188.12,4406.91,4710.87,4643.55,3802.56,4437.0,4529.31,3932.61,3973.92,4418.64,3574.08
5.6171875,4487.49,4700.67,4127.43,4192.71,4408.95,4708.83,4644.57,3805.62,4435.9800000000005,4532.37,3935.67,3979.53,4418.64,3575.1
5.625,4490.55,4703.7300000000005,4126.41,4198.32,4410.4800000000005,4709.85,4646.1,3806.13,4434.96,4531.35,3934.14,3981.06,4419.15,3572.55
5.6328125,4493.61,4699.14,4127.9400000000005,4197.3,4409.97,4710.36,4645.08,3806.13,4438.53,4529.31,3932.61,3975.96,4418.13,3572.04
5.640625,4489.02,4700.67,4128.96,4196.79,4407.93,4711.38,4645.08,3801.03,4437.51,4528.8,3931.59,3973.41,4417.11,3572.04
5.6484375,4488.0,4703.22,4129.9800000000005,4192.2,4407.42,4710.87,4645.59,3795.9300000000003,4435.47,4529.31,3934.65,3976.98,4419.66,3574.08
5.65625,4487.49,4701.18,4126.41,4191.18,4411.5,4711.38,4645.59,3801.03,4434.45,4529.82,3937.2000000000003,3976.98,4418.64,3574.08
5.6640625,4486.47,4702.2,4125.39,4200.36,4409.97,4710.87,4645.59,3805.11,4433.43,4529.31,3933.63,3976.4700000000003,4418.13,3572.55
5.671875,4490.55,4700.16,4128.45,4200.87,4404.36,4706.79,4646.1,3803.07,4435.9800000000005,4529.31,3932.61,3979.53,4420.68,3573.57
5.6796875,4490.04,4697.1,4128.45,4196.28,4408.95,4707.81,4649.67,3803.58,4438.02,4528.8,3932.1,3978.51,4416.6,3570.51
5.6875,4485.96,4700.67,4129.47,4192.2,4412.01,4709.85,4646.61,3805.62,4435.9800000000005,4528.29,3934.14,3975.4500000000003,4415.07,3570.51
5.6953125,4486.47,4701.6900000000005,4128.45,4191.6900000000005,4406.91,4708.83,4645.08,3804.6,4436.49,4528.29,3934.65,3974.4300000000003,4419.15,3574.59
5.703125,4490.04,4697.1,4123.86,4200.87,4408.95,4710.36,4648.14,3802.56,4438.53,4527.78,3932.1,3975.96,4416.09,3573.57
5.7109375,4494.12,4698.12,4125.39,4202.4,4408.95,4709.34,4647.12,3800.52,4437.51,4528.29,3932.1,3975.4500000000003,4415.07,3572.04
5.71875,4494.12,4704.75,4127.9400000000005,4194.75,4407.42,4710.36,4648.65,3801.54,4433.9400000000005,4529.31,3931.08,3974.94,4417.11,3573.57
5.7265625,4488.0,4703.7300000000005,4127.9400000000005,4195.26,4409.46,4712.4,4649.16,3803.58,4432.92,4529.82,3934.65,3976.98,4418.13,3574.59
5.734375,4485.45,4701.18,4126.41,4198.83,4410.99,4710.36,4646.61,3805.11,4433.43,4526.76,3936.69,3977.4900000000002,4418.64,3573.06
5.7421875,4489.53,4703.22,4124.88,4198.83,4409.46,4711.38,4646.61,3805.11,4435.9800000000005,4526.25,3931.08,3975.96,4415.58,3571.53
5.75,4489.02,4700.67,4128.45,4193.7300000000005,4407.93,4712.91,4645.08,3804.09,4438.53,4529.82,3931.59,3975.4500000000003,4415.58,3573.57
5.7578125,4484.9400000000005,4700.16,4129.9800000000005,4193.22,4407.93,4711.89,4646.61,3802.56,4437.0,4530.84,3934.65,3974.4300000000003,4417.62,3572.55
5.765625,4490.04,4703.22,4127.9400000000005,4196.28,4408.4400000000005,4709.85,4646.1,3805.62,4437.0,4527.78,3935.67,3977.4900000000002,4420.17,3572.04
5.7734375,4495.14,4700.67,4125.39,4191.6900000000005,4409.46,4709.34,4645.59,3810.21,4438.02,4528.8,3932.61,3979.02,4420.68,3575.1
5.78125,4488.0,4701.18,4121.82,4193.22,4410.99,4712.4,4652.22,3805.11,4437.0,4529.82,3926.4900000000002,3972.39,4415.58,3573.06
5.7890625,4484.9400000000005,4700.67,4124.37,4194.24,4407.93,4708.32,4648.65,3802.05,4437.0,4528.29,3932.61,3975.96,4415.58,3572.55
5.796875,4490.55,4697.61,4126.41,4193.7300000000005,4407.93,4707.3,4643.55,3807.66,4437.51,4529.31,3937.2000000000003,3980.04,4418.13,3573.06
5.8046875,4491.06,4699.65,4128.45,4193.7300000000005,4408.4400000000005,4711.38,4647.12,3808.17,4437.51,4530.33,3934.14,3975.96,4416.6,3573.06
5.8125,4490.55,4700.67,4128.45,4189.14,4407.42,4712.4,4645.59,3804.09,4439.04,4529.82,3934.65,3974.94,4416.6,3574.08
5.8203125,4488.0,4701.18,4124.37,4198.32,4408.95,4713.93,4647.12,3797.9700000000003,4437.0,4529.31,3930.06,3973.92,4415.58,3566.94
5.828125,4488.51,4698.12,4128.96,4197.81,4408.95,4709.85,4646.1,3795.42,4434.96,4529.31,3931.59,3976.98,4418.64,3569.4900000000002
5.8359375,4492.59,4696.08,4130.49,4185.57,4409.46,4709.85,4643.55,3802.05,4435.9800000000005,4528.29,3932.61,3975.4500000000003,4418.64,3576.12
5.84375,4491.06,4701.18,4127.9400000000005,4194.24,4409.97,4713.93,4644.06,3806.13,4434.96,4529.82,3931.08,3974.4300000000003,4417.62,3574.08
5.8515625,4491.57,4703.22,4128.45,4195.26,4406.91,4707.81,4643.55,3806.64,4435.47,4532.37,3934.65,3980.55,4421.1900000000005,3574.59
5.859375,4487.49,4702.2,4122.84,4194.75,4409.97,4709.85,4651.71,3805.62,4435.9800000000005,4529.82,3927.51,3977.4900000000002,4416.6,3568.4700000000003
5.8671875,4483.92,4702.71,4124.37,4198.32,4409.46,4711.89,4650.6900000000005,3805.11,4435.9800000000005,4528.29,3929.55,3974.94,4415.07,3566.94
5.875,4488.51,4701.6900000000005,4125.39,4190.16,4403.85,4709.85,4645.59,3809.7000000000003,4438.02,4529.82,3938.2200000000003,3979.53,4420.17,3573.06
5.8828125,4488.0,4701.18,4122.33,4195.26,4405.89,4712.4,4650.18,3807.66,4438.53,4530.33,3932.61,3980.55,4416.09,3568.98
5.890625,4488.0,4701.6900000000005,4129.9800000000005,4197.81,4407.42,4711.38,4646.1,3801.54,4437.51,4528.8,3932.61,3972.9,4415.58,3570.51
5.8984375,4492.08,4700.67,4131.0,4189.65,4405.89,4710.87,4643.55,3803.07,4437.51,4527.78,3933.63,3969.84,4416.6,3572.04
5.90625,4491.57,4698.63,4127.9400000000005,4192.71,4406.91,4713.42,4646.61,3805.11,4438.53,4529.31,3933.12,3977.4900000000002,4415.58,3570.51
5.9140625,4489.02,4700.16,4127.43,4198.83,4408.95,4712.91,4646.61,3805.11,4435.9800000000005,4531.35,3935.16,3979.53,4418.13,3571.53
5.921875,4488.0,4704.24,4126.41,4200.36,4409.97,4711.38,4647.63,3806.13,4431.9,4530.33,3934.65,3975.96,4419.66,3570.0
5.9296875,4489.02,4699.14,4130.49,4195.77,4409.46,4709.85,4645.08,3805.11,4435.9800000000005,4527.27,3937.2000000000003,3975.96,4420.68,3571.53
5.9375,4487.49,4697.61,4132.02,4192.71,4411.5,4710.87,4644.06,3802.56,4438.02,4525.2300000000005,3934.65,3975.96,4419.15,3573.06
5.9453125,4486.9800000000005,4702.71,4128.45,4195.77,4412.01,4712.4,4646.61,3804.09,4434.45,4527.27,3931.08,3978.51,4418.13,3573.06
5.953125,4489.02,4701.6900000000005,4125.9,4197.81,4407.42,4708.83,4647.63,3806.13,4437.0,4530.84,3933.12,3979.53,4420.17,3574.08
5.9609375,4490.04,4698.63,4126.41,4200.87,4408.4400000000005,4708.32,4648.14,3802.05,4439.04,4528.8,3934.14,3975.4500000000003,4418.13,3573.57
5.96875,4489.02,4697.1,4128.96,4196.79,4411.5,4710.36,4645.59,3800.01,4436.49,4528.8,3934.65,3978.51,4416.6,3575.1
5.9765625,4487.49,4699.14,4127.9400000000005,4194.75,4411.5,4711.38,4646.1,3804.6,4434.45,4532.88,3931.59,3978.0,4417.62,3571.53
5.984375,4487.49,4702.71,4128.45,4199.85,4409.97,4710.36,4646.61,3806.13,4435.47,4532.88,3930.57,3973.92,4417.62,3567.96
5.9921875,4488.51,4699.14,4128.96,4197.3,4408.4400000000005,4709.85,4644.06,3805.62,4437.0,4527.27,3934.14,3975.96,4418.13,3573.06
6.0,4488.0,4695.57,4127.9400000000005,4197.3,4409.97,4714.4400000000005,4645.08,3802.56,4438.02,4524.21,3933.12,3975.4500000000003,4416.09,3573.57
6.0078125,4489.53,4698.63,4128.96,4197.3,4408.4400000000005,4711.38,4647.12,3799.5,4437.0,4525.74,3931.59,3972.39,4417.11,3571.53
6.015625,4489.02,4700.67,4126.92,4194.75,4407.42,4708.83,4647.63,3803.07,4435.47,4529.82,3932.1,3976.4700000000003,4419.15,3572.55
6.0234375,4486.47,4700.67,4125.39,4199.34,4410.99,4712.4,4648.14,3806.13,4437.0,4531.35,3930.57,3982.59,4416.6,3572.04
6.03125,4492.59,4699.14,4128.45,4195.26,4409.46,4709.85,4645.59,3805.11,4440.06,4530.84,3931.59,3979.02,4417.11,3572.55
6.0390625,4494.12,4696.59,4127.43,4189.65,4406.91,4710.36,4646.1,3801.54,4441.59,4529.31,3931.59,3974.4300000000003,4417.62,3573.06
6.046875,4488.0,4696.08,4127.43,4192.2,4409.46,4713.42,4647.63,3798.48,4437.51,4528.8,3932.61,3976.4700000000003,4417.11,3573.57
6.0546875,4489.02,4699.14,4128.45,4193.22,4410.99,4711.89,4648.14,3802.05,4433.9400000000005,4529.31,3934.65,3975.4500000000003,4417.11,3575.1
6.0625,4491.06,4700.16,4124.37,4192.71,4408.95,4713.42,4645.08,3806.64,4437.0,4528.29,3933.63,3978.51,4420.68,3571.02
6.0703125,4491.06,4701.18,4128.45,4192.2,4409.46,4711.38,4645.08,3800.01,4436.49,4529.82,3933.63,3974.4300000000003,4418.13,3571.02
6.078125,4492.08,4704.24,4129.47,4190.16,4406.91,4711.89,4645.59,3802.56,4435.47,4531.35,3932.61,3975.4500000000003,4415.58,3573.57
6.0859375,4492.08,4701.18,4126.92,4192.2,4404.87,4711.38,4643.04,3807.66,4435.9800000000005,4530.84,3934.65,3981.06,4418.13,3573.06
6.09375,4490.04,4701.6900000000005,4126.41,4197.3,4407.93,4708.83,4645.59,3804.6,4433.9400000000005,4528.29,3933.12,3976.98,4418.13,3568.4700000000003
6.1015625,4491.06,4703.22,4128.45,4195.77,4408.95,4709.34,4646.1,3801.03,4434.45,4527.78,3934.14,3974.4300000000003,4417.11,3573.06
6.109375,4491.06,4701.18,4127.43,4195.77,4406.91,4713.93,4644.57,3800.52,4436.49,4528.29,3934.14,3976.4700000000003,4416.09,3576.12
6.1171875,4491.06,4699.65,4129.9800000000005,4198.32,4405.38,4711.38,4644.57,3800.52,4436.49,4529.82,3931.08,3974.94,4416.6,3572.04
6.125,4492.08,4700.16,4131.0,4197.3,4407.93,4707.3,4645.08,3803.07,4436.49,4531.35,3929.04,3974.4300000000003,4418.64,3573.57
6.1328125,4490.04,4701.6900000000005,4125.9,4200.87,4412.01,4712.4,4647.63,3805.11,4435.9800000000005,4529.31,3931.08,3974.94,4419.66,3574.08
6.140625,4489.02,4698.63,4129.47,4199.34,4408.95,4712.4,4645.59,3802.05,4434.96,4527.27,3936.69,3972.9,4419.15,3572.04
6.1484375,4489.53,4696.59,4131.0,4194.75,4407.42,4707.3,4644.57,3804.09,4436.49,4529.31,3933.63,3973.92,4418.64,3572.04
6.15625,4489.02,4701.6900000000005,4127.9400000000005,4197.3,4410.4800000000005,4708.32,4646.1,3807.15,4436.49,4531.86,3931.08,3978.51,4418.13,3572.04
6.1640625,4489.02,4702.71,4127.43,4193.7300000000005,4408.95,4707.81,4643.55,3806.13,4433.43,4531.35,3935.16,3978.0,4418.64,3573.57
6.171875,4490.04,4697.1,4125.9,4190.16,4407.42,4707.81,4645.08,3804.09,4435.47,4528.8,3933.63,3974.4300000000003,4418.13,3571.53
6.1796875,4490.04,4696.08,4127.43,4192.2,4407.93,4709.85,4647.12,3803.58,4440.06,4529.31,3933.12,3973.92,4416.6,3570.51
6.1875,4489.53,4701.6900000000005,4128.45,4190.16,4408.95,4712.91,4646.1,3804.09,4437.0,4529.82,3933.63,3973.41,4417.11,3572.55
6.1953125,4489.02,4701.18,4127.43,4191.18,4408.4400000000005,4712.91,4645.59,3806.13,4432.92,4528.29,3932.61,3976.98,4418.64,3574.59
6.203125,4491.57,4696.08,4125.9,4194.75,4407.93,4711.38,4644.57,3808.6800000000003,4437.0,4530.84,3934.65,3980.55,4419.15,3574.59
6.2109375,4494.12,4699.14,4125.39,4194.75,4407.42,4714.95,4645.08,3805.62,4439.04,4531.86,3934.14,3976.98,4417.11,3571.53
6.21875,4491.57,4702.71,4126.41,4191.6900000000005,4406.4,4713.42,4644.57,3802.56,4437.51,4528.8,3932.61,3975.4500000000003,4416.09,3574.08
6.2265625,4490.04,4700.67,4126.92,4189.14,4407.42,4712.4,4644.57,3805.11,4438.02,4530.33,3931.08,3977.4900000000002,4416.6,3575.61
6.234375,4490.04,4701.6900000000005,4125.9,4193.22,4409.97,4712.91,4646.61,3805.62,4436.49,4530.33,3929.04,3978.0,4417.62,3571.53
6.2421875,4489.53,4701.6900000000005,4125.9,4196.79,4407.93,4708.32,4646.61,3805.11,4436.49,4525.74,3933.12,3980.04,4420.17,3572.04
6.25,4488.51,4700.67,4125.9,4197.81,4406.4,4708.32,4649.67,3805.11,4439.55,4525.74,3934.14,3977.4900000000002,4417.62,3571.53
6.2578125,4486.47,4701.18,4128.45,4196.28,4407.93,4712.4,4647.63,3803.58,4439.04,4529.31,3932.61,3974.94,4416.09,3571.02
6.265625,4486.9800000000005,4700.67,4130.49,4190.16,4408.95,4711.38,4644.06,3802.05,4436.49,4529.31,3935.16,3975.96,4418.13,3574.08
6.2734375,4491.06,4699.65,4126.41,4193.7300000000005,4409.97,4709.34,4648.14,3803.07,4434.96,4527.78,3933.12,3975.4500000000003,4417.11,3573.57
6.28125,4494.63,4699.14,4122.84,4195.77,4407.93,4709.85,4647.63,3806.13,4434.96,4528.8,3932.1,3976.4700000000003,4417.62,3572.04
6.2890625,4493.1,4699.14,4125.39,4192.2,4408.95,4713.42,4646.1,3807.15,4434.96,4529.31,3933.12,3975.4500000000003,4418.13,3568.98
6.296875,4491.06,4701.6900000000005,4129.47,4192.2,4412.01,4711.38,4647.12,3801.54,4434.45,4527.78,3933.63,3975.4500000000003,4417.62,3567.96
6.3046875,4490.55,4705.77,4128.96,4188.63,4410.99,4705.77,4645.59,3801.54,4436.49,4528.29,3934.65,3975.96,4420.68,3573.57
6.3125,4488.0,4704.24,4125.39,4191.6900000000005,4410.99,4710.36,4647.12,3805.62,4437.51,4530.33,3933.63,3974.94,4420.17,3574.08
6.3203125,4489.02,4697.61,4128.96,4196.28,4411.5,4714.95,4646.1,3801.03,4437.51,4529.82,3936.1800000000003,3975.4500000000003,4419.15,3571.02
6.328125,4491.57,4696.08,4130.49,4192.2,4410.4800000000005,4709.34,4644.57,3798.48,4440.06,4526.25,3934.65,3974.94,4418.64,3572.04
6.3359375,4488.51,4700.16,4127.9400000000005,4192.71,4408.95,4707.81,4648.14,3802.05,4439.04,4526.76,3931.59,3977.4900000000002,4417.11,3572.04
6.34375,4486.9800000000005,4699.14,4128.45,4198.32,4408.4400000000005,4711.38,4648.14,3803.58,4435.47,4528.8,3933.63,3982.08,4420.17,3571.53
6.3515625,4489.53,4698.12,4126.92,4200.87,4409.97,4711.89,4647.12,3803.58,4435.47,4525.74,3931.59,3979.53,4419.66,3571.02
6.359375,4488.51,4698.63,4126.41,4197.3,4410.4800000000005,4709.85,4646.1,3805.11,4438.02,4526.25,3931.59,3975.96,4414.56,3572.04
6.3671875,4486.47,4698.63,4127.43,4192.2,4410.99,4711.38,4643.55,3802.56,4438.02,4529.31,3934.14,3974.4300000000003,4415.58,3572.04
6.375,4488.0,4702.2,4126.41,4191.6900000000005,4412.52,4714.95,4642.53,3803.07,4436.49,4528.29,3932.1,3975.96,4420.68,3569.4900000000002
6.3828125,4488.0,4701.18,4126.41,4195.77,4410.99,4712.4,4644.06,3809.7000000000003,4435.47,4528.8,3933.12,3979.53,4420.68,3569.4900000000002
6.390625,4486.9800000000005,4699.14,4122.33,4199.34,4408.95,4709.85,4647.63,3807.66,4434.96,4530.33,3933.63,3976.4700000000003,4417.11,3571.02
6.3984375,4490.04,4698.63,4123.35,4192.2,4406.91,4709.85,4646.1,3802.56,4436.49,4527.27,3933.63,3974.94,4415.58,3572.55
6.40625,4491.06,4697.61,4128.45,4184.55,4405.38,4709.85,4643.55,3804.6,4437.0,4527.27,3933.63,3977.4900000000002,4417.11,3572.55
6.4140625,4486.47,4699.65,4127.9400000000005,4193.22,4407.42,4711.89,4646.61,3804.6,4436.49,4529.82,3931.59,3976.98,4417.11,3570.51
6.421875,4488.0,4701.18,4124.37,4199.34,4409.46,4711.89,4646.1,3802.05,4438.53,4529.31,3933.63,3974.94,4419.66,3571.02
6.4296875,4491.06,4700.16,4122.33,4196.79,4409.97,4712.4,4646.61,3804.09,4440.57,4527.27,3933.12,3974.4300000000003,4418.64,3574.08
6.4375,4488.51,4700.67,4126.41,4195.26,4409.46,4713.42,4647.12,3803.07,4437.0,4527.78,3932.61,3977.4900000000002,4417.11,3572.55
6.4453125,4489.02,4702.71,4131.0,4189.14,4406.91,4711.89,4646.1,3801.54,4433.43,4528.29,3934.14,3977.4900000000002,4418.64,3570.51
6.453125,4490.04,4705.26,4128.45,4191.18,4407.42,4711.89,4646.1,3803.07,4433.43,4527.78,3932.1,3974.94,4416.6,3571.53
6.4609375,4490.04,4703.22,4127.43,4198.32,4409.46,4710.87,4645.59,3803.07,4435.9800000000005,4528.8,3932.61,3973.92,4415.58,3574.59
6.46875,4491.57,4700.67,4129.47,4194.75,4408.4400000000005,4711.89,4646.61,3801.54,4437.51,4529.31,3934.14,3974.4300000000003,4417.11,3575.1
6.4765625,4489.53,4699.65,4129.9800000000005,4194.24,4407.93,4713.42,4647.12,3801.03,4436.49,4526.76,3933.63,3974.4300000000003,4416.09,3573.06
6.484375,4488.0,4698.63,4129.47,4198.32,4407.93,4709.34,4647.12,3802.05,4435.9800000000005,4528.8,3934.14,3974.94,4419.15,3574.08
6.4921875,4489.53,4701.6900000000005,4126.92,4199.85,4408.4400000000005,4706.79,4648.14,3803.58,4434.96,4532.88,3933.63,3976.4700000000003,4421.7,3573.06
6.5,4490.04,4700.67,4127.43,4200.87,4407.93,4708.83,4644.57,3804.09,4435.9800000000005,4530.33,3934.14,3978.0,4417.11,3571.02
6.5078125,4490.04,4698.12,4128.45,4199.85,4407.42,4710.36,4645.08,3802.56,4438.53,4527.27,3933.12,3973.41,4413.03,3570.0
6.515625,4490.04,4701.18,4128.96,4195.26,4409.46,4710.87,4648.65,3801.54,4438.53,4529.31,3932.1,3970.86,4416.6,3571.02
6.5234375,4488.0,4702.2,4129.47,4193.7300000000005,4408.4400000000005,4710.36,4644.06,3803.58,4438.02,4529.82,3935.16,3977.4900000000002,4418.13,3574.59
6.53125,4487.49,4701.18,4125.39,4200.87,4406.91,4710.87,4644.06,3804.09,4437.0,4527.78,3933.63,3978.0,4414.56,3572.55
6.5390625,4492.08,4700.67,4126.92,4198.83,4407.93,4710.36,4648.65,3802.56,4438.02,4529.82,3932.1,3974.4300000000003,4417.11,3570.0
6.546875,4493.1,4699.14,4132.02,4191.18,4409.97,4710.87,4647.12,3801.03,4440.06,4532.37,3935.67,3973.92,4420.17,3571.53
6.5546875,4487.49,4699.65,4132.02,4195.26,4411.5,4710.87,4647.12,3798.48,4438.02,4529.82,3935.67,3972.9,4418.13,3570.51
6.5625,4486.9800000000005,4700.67,4127.9400000000005,4200.36,4410.4800000000005,4709.34,4646.1,3803.07,4435.47,4528.8,3932.61,3975.96,4418.64,3570.0
6.5703125,4489.53,4698.63,4122.84,4203.93,4408.95,4714.4400000000005,4646.1,3808.6800000000003,4437.0,4528.8,3932.1,3978.51,4417.62,3571.53
6.578125,4490.04,4696.59,4126.41,4200.87,4407.42,4714.4400000000005,4647.12,3806.64,4438.02,4528.8,3935.16,3975.96,4417.62,3572.04
6.5859375,4489.53,4698.63,4128.96,4187.61,4407.93,4710.36,4646.1,3805.11,4438.02,4530.33,3932.1,3972.39,4418.64,3571.02
6.59375,4489.53,4701.18,4125.39,4188.12,4408.95,4712.91,4648.14,3806.64,4437.51,4531.35,3927.0,3974.94,4415.58,3572.04
6.6015625,4491.06,4701.6900000000005,4126.41,4194.75,4408.4400000000005,4711.89,4648.65,3806.13,4437.51,4528.29,3933.12,3978.51,4416.09,3576.12
6.609375,4492.08,4700.16,4125.9,4190.16,4408.95,4710.87,4647.63,3804.09,4438.53,4524.72,3934.65,3977.4900000000002,4417.11,3573.06
6.6171875,4488.51,4699.14,4124.88,4190.16,4409.46,4714.4400000000005,4646.1,3804.09,4438.53,4526.25,3932.61,3975.96,4414.56,3568.4700000000003
6.625,4488.51,4699.14,4128.96,4195.26,4408.95,4712.91,4646.1,3804.09,4435.9800000000005,4526.25,3934.65,3974.94,4415.07,3571.53
6.6328125,4492.59,4700.16,4128.96,4198.32,4408.95,4707.81,4647.63,3804.09,4434.45,4528.29,3932.61,3976.98,4418.64,3573.57
6.640625,4492.08,4702.71,4125.9,4196.79,4407.42,4707.81,4645.08,3806.13,4433.9400000000005,4531.35,3932.61,3979.53,4419.15,3573.57
6.6484375,4489.02,4701.6900000000005,4125.9,4197.81,4407.42,4711.89,4644.57,3806.64,4433.9400000000005,4528.29,3934.14,3973.41,4417.11,3572.55
6.65625,4492.59,4699.14,4127.43,4200.87,4407.42,4711.89,4645.08,3802.05,4435.47,4525.74,3935.16,3970.86,4417.11,3571.02
6.6640625,4493.61,4699.65,4128.96,4197.3,4404.87,4709.85,4645.59,3802.05,4436.49,4530.33,3936.69,3975.96,4418.13,3573.06
6.671875,4484.43,4704.75,4127.43,4195.26,4406.4,4711.38,4647.12,3805.62,4432.92,4530.33,3933.12,3974.4300000000003,4417.11,3572.55
6.6796875,4483.92,4704.24,4125.9,4195.26,4409.46,4711.38,4644.57,3806.64,4433.9400000000005,4525.74,3931.08,3974.94,4418.64,3570.51
6.6875,4493.61,4697.1,4126.41,4193.22,4407.93,4710.36,4645.59,3804.09,4439.04,4526.25,3932.61,3976.98,4419.66,3572.55
6.6953125,4491.57,4699.14,4132.02,4194.75,4405.89,4712.4,4650.18,3798.9900000000002,4438.02,4529.31,3934.14,3975.4500000000003,4415.58,3573.57
6.703125,4485.45,4702.2,4132.53,4194.75,4406.4,4713.42,4647.12,3800.52,4435.47,4529.31,3936.1800000000003,3974.94,4417.62,3572.55
6.7109375,4488.0,4699.65,4122.84,4201.38,4410.4800000000005,4712.91,4647.12,3804.6,4435.47,4527.78,3933.63,3977.4900000000002,4420.17,3571.02
6.71875,4491.06,4699.65,4123.86,4205.97,4409.46,4711.38,4648.14,3801.54,4435.9800000000005,4527.27,3934.65,3980.04,4417.11,3572.55
6.7265625,4489.02,4702.2,4130.49,4193.7300000000005,4407.42,4710.36,4646.61,3803.58,4436.49,4527.78,3935.67,3977.4900000000002,4417.11,3575.1
6.734375,4487.49,4701.6900000000005,4129.47,4187.1,4408.95,4712.4,4647.63,3805.11,4434.96,4527.27,3932.61,3975.96,4417.11,3573.57
6.7421875,4487.49,4698.12,4126.92,4189.65,4407.93,4710.87,4646.61,3802.05,4433.9400000000005,4529.31,3933.63,3978.0,4416.6,3572.55
6.75,4488.51,4699.65,4124.37,4189.65,4406.4,4710.87,4647.63,3803.07,4434.96,4531.86,3934.65,3979.02,4418.13,3572.04
6.7578125,4489.02,4700.67,4124.88,4190.67,4406.4,4714.4400000000005,4647.63,3804.09,4436.49,4528.29,3934.65,3978.51,4419.15,3572.04
6.765625,4488.0,4696.59,4125.39,4194.24,4405.89,4711.38,4645.59,3800.52,4437.51,4524.21,3933.12,3976.4700000000003,4419.15,3574.59
6.7734375,4486.9800000000005,4697.61,4123.86,4195.26,4408.95,4708.32,4647.12,3802.56,4437.0,4527.78,3928.53,3975.4500000000003,4416.6,3573.57
6.78125,4488.0,4700.67,4124.37,4194.75,4409.97,4707.3,4646.61,3810.7200000000003,4435.9800000000005,4529.82,3932.61,3978.0,4417.62,3573.57
6.7890625,4488.51,4701.18,4126.41,4197.81,4407.93,4707.3,4646.1,3808.17,4433.9400000000005,4527.78,3934.65,3975.4500000000003,4419.15,3572.04
6.796875,4489.02,4698.63,4126.41,4197.81,4408.95,4707.81,4645.59,3801.03,4434.45,4528.29,3930.57,3974.4300000000003,4418.13,3572.04
6.8046875,4490.55,4696.08,4127.43,4193.7300000000005,4410.99,4707.3,4645.08,3803.07,4437.51,4528.8,3932.1,3975.4500000000003,4416.6,3575.1
6.8125,4490.04,4702.2,4126.92,4195.77,4410.4800000000005,4708.83,4648.14,3806.13,4435.9800000000005,4526.25,3933.12,3974.94,4416.6,3573.57
6.8203125,4488.51,4705.26,4125.39,4192.71,4408.95,4709.34,4648.14,3805.11,4432.92,4527.78,3931.59,3977.4900000000002,4419.15,3573.06
6.828125,4488.51,4700.16,4125.39,4190.67,4407.93,4711.38,4645.59,3804.09,4434.96,4531.35,3931.59,3978.51,4419.15,3573.06
6.8359375,4490.04,4699.14,4126.41,4195.26,4407.93,4713.93,4644.57,3802.05,4437.0,4529.31,3933.12,3975.96,4416.6,3570.0
6.84375,4493.61,4702.2,4128.45,4191.18,4408.4400000000005,4713.93,4646.1,3801.03,4437.0,4527.27,3934.14,3974.94,4417.62,3570.0
6.8515625,4490.55,4703.22,4127.9400000000005,4191.18,4409.46,4713.93,4650.18,3803.58,4437.51,4528.29,3931.59,3974.94,4416.6,3570.51
6.859375,4489.53,4701.6900000000005,4126.92,4195.77,4408.95,4711.89,4649.67,3803.58,4434.96,4529.31,3932.61,3976.98,4418.13,3572.55
6.8671875,4494.63,4699.65,4125.39,4193.7300000000005,4409.46,4709.85,4647.12,3802.56,4432.41,4530.33,3933.12,3979.02,4420.68,3571.02
6.875,4493.1,4700.16,4127.43,4193.7300000000005,4411.5,4713.42,4646.61,3803.07,4435.47,4530.33,3932.1,3974.94,4419.66,3569.4900000000002
6.8828125,4490.55,4703.22,4132.53,4194.24,4407.93,4712.4,4643.55,3802.56,4437.51,4529.31,3936.1800000000003,3971.37,4417.62,3572.55
6.890625,4490.04,4703.7300000000005,4128.45,4192.71,4406.4,4709.85,4643.55,3803.58,4435.47,4528.29,3935.16,3973.92,4417.62,3572.55
6.8984375,4491.06,4699.65,4124.88,4194.24,4407.42,4709.85,4645.59,3804.6,4435.9800000000005,4528.29,3933.12,3975.4500000000003,4417.62,3571.53
6.90625,4491.06,4699.14,4128.45,4196.79,4406.91,4709.85,4644.06,3803.07,4439.04,4529.82,3934.14,3973.41,4416.09,3573.57
6.9140625,4488.51,4702.71,4127.43,4198.83,4409.46,4710.87,4646.1,3802.56,4438.53,4528.8,3933.12,3975.4500000000003,4414.05,3574.59
6.921875,4486.9800000000005,4703.22,4128.45,4194.24,4409.97,4711.38,4645.59,3805.11,4437.51,4527.27,3934.14,3979.02,4417.11,3574.08
6.9296875,4485.45,4702.2,4129.9800000000005,4191.6900000000005,4407.93,4711.38,4646.61,3805.11,4437.0,4528.29,3932.61,3975.96,4419.15,3571.02
6.9375,4486.47,4700.16,4129.47,4195.77,4408.95,4707.3,4648.14,3804.6,4437.51,4529.82,3931.59,3975.4500000000003,4417.11,3571.53
6.9453125,4490.55,4697.1,4127.43,4197.3,4410.4800000000005,4709.34,4644.57,3804.09,4439.04,4529.31,3933.63,3977.4900000000002,4415.58,3574.08
6.953125,4490.04,4699.65,4128.45,4196.28,4406.91,4715.97,4645.08,3802.56,4438.02,4528.29,3933.12,3973.92,4416.6,3572.04
6.9609375,4489.02,4700.16,4128.45,4188.63,4405.89,4710.36,4646.1,3805.11,4435.9800000000005,4528.8,3933.12,3975.4500000000003,4419.66,3573.57
6.96875,4490.55,4698.12,4123.35,4187.61,4409.97,4707.3,4645.08,3807.15,4436.49,4528.29,3934.14,3979.02,4418.64,3574.08
6.9765625,4490.55,4700.67,4125.39,4192.2,4407.93,4713.93,4646.1,3802.05,4437.51,4527.27,3933.63,3976.98,4417.11,3570.51
6.984375,4491.06,4702.71,4130.49,4189.14,4406.4,4712.4,4646.61,3802.56,4437.0,4527.27,3933.63,3974.4300000000003,4418.64,3573.06
6.9921875,4489.53,4701.6900000000005,4128.45,4192.71,4409.46,4706.79,4646.61,3804.6,4437.0,4527.78,3930.57,3973.92,4417.62,3573.57
7.0,4488.51,4701.18,4126.92,4195.77,4408.95,4706.28,4645.08,3803.58,4437.0,4530.33,3933.12,3974.4300000000003,4419.15,3571.02
7.0078125,4488.0,4703.22,4125.39,4192.71,4408.4400000000005,4708.83,4647.12,3806.13,4435.47,4530.84,3936.1800000000003,3978.51,4421.1900000000005,3572.04
7.015625,4486.9800000000005,4703.22,4126.41,4197.81,4409.46,4709.85,4647.63,3807.15,4434.96,4529.82,3933.12,3980.04,4417.62,3574.08
